#isoforms=['exon:trans3:3_exon:trans3:2_exon:trans3:1','exon:trans2:3_exon:trans2:2_exon:trans2:1']	exon_lens=('exon:trans3:3',300),('exon:trans3:2',500),('exon:trans3:1',250),('exon:trans2:3',300),('exon:trans2:2',600),('exon:trans2:1',250)	iters=5000	burn_in=500	lag=10	percent_accept=75.85	proposal_type=drift	counts=(0,0):11,(0,1):1683,(1,0):171,(1,1):1005	assigned_counts=0:283,1:2576	chrom=test1	strand=-	mRNA_starts=3000,3000	mRNA_ends=5299,5299
sampled_psi	log_score
0.1093,0.8907	-20789.77
0.1033,0.8967	-20740.59
0.1108,0.8892	-20781.47
0.0993,0.9007	-20758.16
0.1110,0.8890	-20758.60
0.0936,0.9064	-20798.04
0.1222,0.8778	-20827.34
0.1002,0.8998	-20740.50
0.1192,0.8808	-20825.01
0.1046,0.8954	-20764.33
0.1090,0.8910	-20751.96
0.0908,0.9092	-20774.27
0.1116,0.8884	-20787.76
0.1112,0.8888	-20756.56
0.1127,0.8873	-20787.85
0.0990,0.9010	-20793.52
0.1001,0.8999	-20753.67
0.1055,0.8945	-20768.61
0.0954,0.9046	-20772.39
0.1143,0.8857	-20779.86
0.1049,0.8951	-20732.16
0.1087,0.8913	-20789.78
0.1073,0.8927	-20779.24
0.1091,0.8909	-20772.97
0.1052,0.8948	-20777.18
0.1048,0.8952	-20770.76
0.1014,0.8986	-20757.95
0.1089,0.8911	-20768.75
0.1074,0.8926	-20728.42
0.1129,0.8871	-20794.06
0.1032,0.8968	-20777.34
0.0939,0.9061	-20711.72
0.1146,0.8854	-20757.43
0.1073,0.8927	-20764.41
0.1046,0.8954	-20779.35
0.1162,0.8838	-20784.28
0.1060,0.8940	-20775.01
0.1141,0.8859	-20771.61
0.1167,0.8833	-20782.37
0.1136,0.8864	-20775.62
0.1105,0.8895	-20800.22
0.0948,0.9052	-20774.87
0.1109,0.8891	-20771.07
0.1056,0.8944	-20794.25
0.1106,0.8894	-20766.86
0.1060,0.8940	-20768.61
0.1092,0.8908	-20793.97
0.0981,0.9019	-20751.69
0.1010,0.8990	-20775.47
0.1071,0.8929	-20785.60
0.1061,0.8939	-20804.84
0.1159,0.8841	-20826.90
0.0912,0.9088	-20764.86
0.1035,0.8965	-20766.51
0.1023,0.8977	-20755.73
0.0999,0.9001	-20777.88
0.1081,0.8919	-20804.57
0.1009,0.8991	-20768.93
0.0938,0.9062	-20741.22
0.1182,0.8818	-20847.04
0.1130,0.8870	-20773.47
0.1056,0.8944	-20757.93
0.1012,0.8988	-20777.63
0.1118,0.8882	-20773.27
0.1066,0.8934	-20777.12
0.1123,0.8877	-20820.90
0.0999,0.9001	-20764.69
0.1036,0.8964	-20777.30
0.1045,0.8955	-20760.03
0.0991,0.9009	-20789.10
0.1115,0.8885	-20793.98
0.1054,0.8946	-20764.33
0.1051,0.8949	-20740.76
0.1113,0.8887	-20773.20
0.1157,0.8843	-20804.53
0.0994,0.9006	-20729.50
0.1127,0.8873	-20777.54
0.1133,0.8867	-20773.50
0.1159,0.8841	-20767.97
0.1107,0.8893	-20758.55
0.1043,0.8957	-20738.53
0.0940,0.9060	-20745.71
0.1086,0.8914	-20739.26
0.1075,0.8925	-20815.23
0.1104,0.8896	-20808.56
0.1183,0.8817	-20776.73
0.0957,0.9043	-20738.62
0.0925,0.9075	-20759.78
0.1108,0.8892	-20785.63
0.1149,0.8851	-20747.29
0.1124,0.8876	-20771.30
0.1060,0.8940	-20766.48
0.1004,0.8996	-20764.62
0.1174,0.8826	-20774.46
0.1072,0.8928	-20743.21
0.0973,0.9027	-20767.40
0.1167,0.8833	-20834.99
0.1244,0.8756	-20778.93
0.1073,0.8927	-20811.02
0.1086,0.8914	-20766.62
0.1122,0.8878	-20773.32
0.1046,0.8954	-20751.45
0.1002,0.8998	-20753.67
0.0994,0.9006	-20780.18
0.1144,0.8856	-20775.78
0.1136,0.8864	-20798.22
0.1035,0.8965	-20740.61
0.1186,0.8814	-20822.95
0.0969,0.9031	-20731.78
0.1134,0.8866	-20796.15
0.1005,0.8995	-20790.91
0.1086,0.8914	-20785.57
0.1040,0.8960	-20760.03
0.1111,0.8889	-20762.78
0.1026,0.8974	-20781.75
0.1144,0.8856	-20740.98
0.0837,0.9163	-20714.06
0.1134,0.8866	-20775.58
0.1248,0.8752	-20833.65
0.1117,0.8883	-20771.18
0.1051,0.8949	-20777.18
0.1204,0.8796	-20821.15
0.0981,0.9019	-20745.03
0.1090,0.8910	-20766.66
0.0952,0.9048	-20765.72
0.1144,0.8856	-20800.33
0.1110,0.8890	-20791.89
0.1016,0.8984	-20784.10
0.1131,0.8869	-20804.37
0.1079,0.8921	-20779.24
0.1049,0.8951	-20766.47
0.1029,0.8971	-20788.20
0.0957,0.9043	-20754.34
0.1041,0.8959	-20809.53
0.0934,0.9066	-20764.05
0.1169,0.8831	-20790.51
0.0970,0.9030	-20716.16
0.0985,0.9015	-20778.20
0.0952,0.9048	-20713.93
0.1173,0.8827	-20802.70
0.1068,0.8932	-20770.75
0.1030,0.8970	-20794.69
0.0997,0.9003	-20744.91
0.0998,0.9002	-20718.51
0.0908,0.9092	-20746.61
0.1054,0.8946	-20770.75
0.1058,0.8942	-20766.47
0.1150,0.8850	-20824.87
0.1131,0.8869	-20773.48
0.1162,0.8838	-20774.15
0.0991,0.9009	-20758.19
0.1090,0.8910	-20779.27
0.1070,0.8930	-20783.49
0.1128,0.8872	-20794.05
0.1095,0.8905	-20775.10
0.1099,0.8901	-20800.23
0.1159,0.8841	-20790.33
0.1079,0.8921	-20739.10
0.1171,0.8829	-20828.92
0.1078,0.8922	-20762.33
0.0985,0.9015	-20784.84
0.1130,0.8870	-20845.58
0.1148,0.8852	-20784.03
0.1057,0.8943	-20798.50
0.1116,0.8884	-20775.31
0.1078,0.8922	-20791.92
0.0880,0.9120	-20698.61
0.1098,0.8902	-20773.03
0.1116,0.8884	-20771.16
0.1095,0.8905	-20781.39
0.1083,0.8917	-20791.90
0.0982,0.9018	-20736.15
0.1060,0.8940	-20809.12
0.1106,0.8894	-20771.03
0.1178,0.8822	-20804.78
0.0967,0.9033	-20754.13
0.1114,0.8886	-20771.13
0.1042,0.8958	-20807.36
0.1128,0.8872	-20798.17
0.1092,0.8908	-20758.29
0.1226,0.8774	-20788.04
0.1100,0.8900	-20781.41
0.1123,0.8877	-20794.02
0.1073,0.8927	-20789.83
0.1071,0.8929	-20808.94
0.1150,0.8850	-20779.97
0.1096,0.8904	-20764.63
0.1126,0.8874	-20769.27
0.1049,0.8951	-20772.90
0.1089,0.8911	-20775.06
0.1131,0.8869	-20787.89
0.1141,0.8859	-20792.12
0.1112,0.8888	-20773.19
0.1126,0.8874	-20816.74
0.0975,0.9025	-20767.36
0.0999,0.9001	-20751.50
0.1114,0.8886	-20796.05
0.1197,0.8803	-20795.12
0.1130,0.8870	-20783.76
0.1046,0.8954	-20787.94
0.1076,0.8924	-20787.70
0.1085,0.8915	-20775.04
0.1078,0.8922	-20787.69
0.1025,0.8975	-20768.75
0.1034,0.8966	-20777.31
0.0997,0.9003	-20731.71
0.1164,0.8836	-20798.52
0.0961,0.9039	-20754.25
0.1057,0.8943	-20766.47
0.1040,0.8960	-20777.26
0.1185,0.8815	-20788.83
0.1116,0.8884	-20802.28
0.1062,0.8938	-20766.48
0.0952,0.9048	-20731.94
0.1045,0.8955	-20768.63
0.1088,0.8912	-20800.29
0.1138,0.8862	-20806.45
0.1028,0.8972	-20744.89
0.0967,0.9033	-20783.19
0.0908,0.9092	-20707.45
0.1127,0.8873	-20763.09
0.1205,0.8795	-20791.34
0.0992,0.9008	-20780.24
0.0937,0.9063	-20723.08
0.1090,0.8910	-20747.75
0.1146,0.8854	-20798.31
0.0997,0.9003	-20802.13
0.1128,0.8872	-20765.17
0.1041,0.8959	-20762.18
0.0986,0.9014	-20775.98
0.1227,0.8773	-20833.31
0.1154,0.8846	-20796.35
0.1056,0.8944	-20764.33
0.0994,0.9006	-20753.74
0.1124,0.8876	-20827.08
0.1137,0.8863	-20798.23
0.1049,0.8951	-20775.05
0.1267,0.8733	-20834.04
0.1138,0.8862	-20800.29
0.1052,0.8948	-20800.73
0.1066,0.8934	-20755.86
0.1099,0.8901	-20750.03
0.1067,0.8933	-20775.00
0.1226,0.8774	-20815.59
0.0989,0.9011	-20764.84
0.0933,0.9067	-20723.14
0.1070,0.8930	-20738.94
0.1127,0.8873	-20787.86
0.1134,0.8866	-20769.41
0.1046,0.8954	-20777.21
0.1052,0.8948	-20781.45
0.0937,0.9063	-20736.70
0.1179,0.8821	-20812.85
0.1139,0.8861	-20781.84
0.1302,0.8698	-20840.65
0.0980,0.9020	-20740.60
0.1093,0.8907	-20793.97
0.0887,0.9113	-20733.42
0.1229,0.8771	-20799.93
0.1098,0.8902	-20789.77
0.1263,0.8737	-20801.07
0.1056,0.8944	-20766.47
0.0933,0.9067	-20752.69
0.0944,0.9056	-20709.44
0.1121,0.8879	-20785.73
0.0992,0.9008	-20753.76
0.1143,0.8857	-20818.75
0.1013,0.8987	-20773.24
0.1076,0.8924	-20734.81
0.1091,0.8909	-20793.97
0.0955,0.9045	-20716.17
0.1076,0.8924	-20785.59
0.1201,0.8799	-20807.17
0.1009,0.8991	-20812.66
0.1119,0.8881	-20812.64
0.1061,0.8939	-20755.82
0.1092,0.8908	-20787.67
0.1164,0.8836	-20853.25
0.1113,0.8887	-20800.21
0.0998,0.9002	-20797.68
0.1089,0.8911	-20779.26
0.1065,0.8935	-20775.00
0.1211,0.8789	-20809.36
0.1178,0.8822	-20812.83
0.1137,0.8863	-20777.69
0.1023,0.8977	-20744.87
0.1212,0.8788	-20805.42
0.1163,0.8837	-20796.48
0.1157,0.8843	-20794.35
0.1035,0.8965	-20781.63
0.1165,0.8835	-20766.10
0.1026,0.8974	-20757.90
0.1028,0.8972	-20740.56
0.1017,0.8983	-20786.26
0.1113,0.8887	-20775.27
0.1182,0.8818	-20818.90
0.1107,0.8893	-20754.38
0.1133,0.8867	-20804.37
0.1152,0.8848	-20800.40
0.1027,0.8973	-20764.40
0.1185,0.8815	-20806.90
0.1206,0.8794	-20801.30
0.1083,0.8917	-20779.25
0.0979,0.9021	-20791.67
0.1025,0.8975	-20838.17
0.0946,0.9054	-20732.02
0.1075,0.8925	-20783.47
0.1081,0.8919	-20779.24
0.1094,0.8906	-20773.00
0.1057,0.8943	-20757.93
0.1114,0.8886	-20769.06
0.1012,0.8988	-20760.15
0.1098,0.8902	-20798.15
0.1177,0.8823	-20824.91
0.1086,0.8914	-20791.89
0.1082,0.8918	-20751.82
0.1106,0.8894	-20781.45
0.1185,0.8815	-20816.93
0.1093,0.8907	-20747.82
0.1079,0.8921	-20766.57
0.1168,0.8832	-20806.67
0.1049,0.8951	-20747.18
0.1070,0.8930	-20751.66
0.1113,0.8887	-20812.67
0.1085,0.8915	-20758.19
0.1074,0.8926	-20777.12
0.1155,0.8845	-20824.87
0.1080,0.8920	-20747.58
0.0967,0.9033	-20796.58
0.1151,0.8849	-20812.63
0.1139,0.8861	-20767.48
0.1027,0.8973	-20714.55
0.1146,0.8854	-20810.57
0.1078,0.8922	-20739.08
0.1026,0.8974	-20805.61
0.1067,0.8933	-20789.87
0.1060,0.8940	-20764.35
0.0975,0.9025	-20785.15
0.1078,0.8922	-20787.69
0.1040,0.8960	-20783.72
0.1153,0.8847	-20767.82
0.1085,0.8915	-20760.30
0.1017,0.8983	-20781.90
0.1039,0.8961	-20766.49
0.0990,0.9010	-20758.21
0.1030,0.8970	-20779.53
0.1026,0.8974	-20747.05
0.1095,0.8905	-20793.96
0.1210,0.8790	-20811.32
0.1017,0.8983	-20742.69
0.1043,0.8957	-20781.53
0.1100,0.8900	-20785.59
0.1006,0.8994	-20768.97
0.1113,0.8887	-20798.13
0.0999,0.9001	-20802.05
0.1080,0.8920	-20772.91
0.1163,0.8837	-20816.76
0.1074,0.8926	-20743.24
0.1060,0.8940	-20762.21
0.1026,0.8974	-20729.70
0.0984,0.9016	-20747.22
0.1110,0.8890	-20812.69
0.1071,0.8929	-20796.21
0.1084,0.8916	-20768.72
0.1111,0.8889	-20762.78
0.1093,0.8907	-20791.87
0.0946,0.9054	-20759.12
0.1125,0.8875	-20798.16
0.1096,0.8904	-20756.26
0.1024,0.8976	-20731.85
0.1132,0.8868	-20810.55
0.0977,0.9023	-20773.97
0.0997,0.9003	-20766.91
0.1006,0.8994	-20755.82
0.0965,0.9035	-20758.65
0.1119,0.8881	-20802.28
0.1137,0.8863	-20790.02
0.1077,0.8923	-20787.70
0.1033,0.8967	-20757.88
0.1072,0.8928	-20760.16
0.1038,0.8962	-20783.75
0.1001,0.8999	-20775.64
0.1010,0.8990	-20773.29
0.1098,0.8902	-20770.94
0.1061,0.8939	-20796.32
0.1129,0.8871	-20732.22
0.1154,0.8846	-20798.38
0.1025,0.8975	-20790.45
0.0970,0.9030	-20787.55
0.1085,0.8915	-20787.68
0.1049,0.8951	-20798.62
0.1107,0.8893	-20771.04
0.1211,0.8789	-20801.43
0.1262,0.8738	-20818.43
0.1032,0.8968	-20770.85
0.1079,0.8921	-20743.32
0.1117,0.8883	-20791.92
0.1037,0.8963	-20766.50
0.1090,0.8910	-20768.76
0.1088,0.8912	-20739.30
0.1030,0.8970	-20792.51
0.1025,0.8975	-20738.37
0.0979,0.9021	-20742.83
0.1111,0.8889	-20789.81
0.1227,0.8773	-20809.72
0.1197,0.8803	-20795.13
0.1027,0.8973	-20818.59
0.1059,0.8941	-20757.94
0.1115,0.8885	-20775.30
0.1153,0.8847	-20761.70
0.1011,0.8989	-20773.27
0.1093,0.8907	-20804.46
0.1099,0.8901	-20766.77
0.0983,0.9017	-20769.38
0.1107,0.8893	-20768.96
0.1161,0.8839	-20749.77
0.1126,0.8874	-20779.58
0.1198,0.8802	-20831.04
0.1115,0.8885	-20831.34
0.1128,0.8872	-20789.93
0.1013,0.8987	-20788.52
0.1053,0.8947	-20736.52
0.1118,0.8882	-20812.64
0.1136,0.8864	-20800.28
0.1072,0.8928	-20766.52
0.0964,0.9036	-20769.86
0.1081,0.8919	-20775.02
0.1034,0.8966	-20781.64
0.1027,0.8973	-20777.40
0.1102,0.8898	-20793.96
0.1002,0.8998	-20744.89
0.0933,0.9067	-20750.42
0.1170,0.8830	-20770.30
0.1007,0.8993	-20755.82
0.1092,0.8908	-20766.69
0.1087,0.8913	-20787.67
0.1086,0.8914	-20781.36
0.1151,0.8849	-20786.12
0.1155,0.8845	-20778.03
0.1110,0.8890	-20791.89
0.1088,0.8912	-20770.85
0.1054,0.8946	-20796.41
0.1063,0.8937	-20721.76
0.1103,0.8897	-20760.55
0.1140,0.8860	-20814.66
0.1073,0.8927	-20777.12
0.1073,0.8927	-20758.05
0.1084,0.8916	-20789.79
0.1056,0.8944	-20764.33
0.1063,0.8937	-20809.07
0.1138,0.8862	-20826.97
0.1099,0.8901	-20812.78
0.1103,0.8897	-20771.00
0.1095,0.8905	-20804.44
0.1078,0.8922	-20789.81
0.1020,0.8980	-20805.77
0.1093,0.8907	-20787.67
0.1101,0.8899	-20762.61
0.1033,0.8967	-20777.33
0.0893,0.9107	-20756.46
0.1117,0.8883	-20791.91
0.1094,0.8906	-20817.03
0.1038,0.8962	-20792.37
0.0953,0.9047	-20731.93
0.1162,0.8838	-20782.26
0.1012,0.8988	-20705.55
0.1176,0.8824	-20784.59
0.1074,0.8926	-20775.00
0.1123,0.8877	-20802.29
0.0897,0.9103	-20719.20
0.1021,0.8979	-20753.57
0.1025,0.8975	-20799.13
0.1303,0.8697	-20817.89
0.1066,0.8934	-20775.00
0.1108,0.8892	-20775.22
0.0951,0.9049	-20704.92
0.1110,0.8890	-20766.92
0.1039,0.8961	-20785.88
0.1080,0.8920	-20770.80
0.1048,0.8952	-20802.93
0.1094,0.8906	-20791.87
0.0994,0.9006	-20714.07
0.1083,0.8917	-20779.25
0.1241,0.8759	-20790.54
0.1093,0.8907	-20785.58
0.1084,0.8916	-20796.11
0.0987,0.9013	-20751.61
0.1018,0.8982	-20744.87
0.1059,0.8941	-20762.21
0.1174,0.8826	-20857.18
0.1059,0.8941	-20747.27
0.1063,0.8937	-20749.46
0.1012,0.8988	-20781.99
0.1105,0.8895	-20775.18
0.1064,0.8936	-20798.40
0.1040,0.8960	-20783.72
0.1017,0.8983	-20727.44
0.1137,0.8863	-20800.28
0.1150,0.8850	-20784.06
0.1037,0.8963	-20734.15
0.1068,0.8932	-20781.37
0.1017,0.8983	-20760.12
0.1059,0.8941	-20775.01
0.1267,0.8733	-20839.82
0.0917,0.9083	-20705.05
0.1000,0.9000	-20751.48
0.1024,0.8976	-20766.59
0.1151,0.8849	-20784.08
0.0993,0.9007	-20740.52
0.1253,0.8747	-20847.34
0.1050,0.8950	-20777.18
0.1065,0.8935	-20738.85
0.1094,0.8906	-20781.38
0.1160,0.8840	-20810.65
0.1088,0.8912	-20762.44
0.1194,0.8806	-20827.03
0.1107,0.8893	-20760.62
0.1033,0.8967	-20768.69
0.0990,0.9010	-20744.95
0.1062,0.8938	-20800.56
0.0970,0.9030	-20769.70
0.1085,0.8915	-20758.19
0.1087,0.8913	-20806.61
0.0955,0.9045	-20731.91
0.1009,0.8991	-20782.06
0.1102,0.8898	-20766.81
0.1062,0.8938	-20755.83
0.1136,0.8864	-20775.63
0.1159,0.8841	-20810.64
0.1049,0.8951	-20732.16
0.1064,0.8936	-20796.28
0.1024,0.8976	-20779.60
0.1036,0.8964	-20798.88
0.1018,0.8982	-20747.04
0.1129,0.8871	-20761.07
0.1128,0.8872	-20758.98
0.1158,0.8842	-20749.65
0.1026,0.8974	-20749.22
0.1090,0.8910	-20770.86
0.1047,0.8953	-20745.01
0.1062,0.8938	-20743.04
0.1128,0.8872	-20769.30
0.1176,0.8824	-20810.80
0.0888,0.9112	-20726.42
0.1147,0.8853	-20804.45
0.1041,0.8959	-20764.34
0.1059,0.8941	-20779.28
0.1150,0.8850	-20810.59
0.1027,0.8973	-20788.25
0.0864,0.9136	-20729.59
0.1060,0.8940	-20787.80
0.1028,0.8972	-20792.55
0.0980,0.9020	-20771.67
0.1102,0.8898	-20791.87
0.1103,0.8897	-20775.17
0.0982,0.9018	-20767.19
0.1076,0.8924	-20779.24
0.1160,0.8840	-20788.32
0.1031,0.8969	-20814.14
0.0994,0.9006	-20777.99
0.1142,0.8858	-20765.49
0.1188,0.8812	-20822.97
0.1060,0.8940	-20764.34
0.1070,0.8930	-20762.27
0.1024,0.8976	-20773.10
0.0994,0.9006	-20775.78
0.1177,0.8823	-20784.61
0.1160,0.8840	-20774.09
0.1202,0.8798	-20803.21
0.0942,0.9058	-20720.76
0.1067,0.8933	-20768.62
0.1086,0.8914	-20779.26
0.1076,0.8924	-20766.55
0.1047,0.8953	-20775.06
0.0986,0.9014	-20725.07
0.1085,0.8915	-20817.16
0.1092,0.8908	-20789.77
0.1140,0.8860	-20785.95
0.1100,0.8900	-20773.05
0.1102,0.8898	-20770.98
0.1050,0.8950	-20775.04
0.1075,0.8925	-20789.82
0.1148,0.8852	-20826.92
0.1145,0.8855	-20759.42
0.1014,0.8986	-20738.32
0.1171,0.8829	-20810.74
0.1026,0.8974	-20775.24
0.1047,0.8953	-20749.31
0.1217,0.8783	-20833.20
0.1027,0.8973	-20770.89
0.1125,0.8875	-20785.77
0.1101,0.8899	-20739.63
0.1133,0.8867	-20810.55
0.1035,0.8965	-20775.14
0.1183,0.8817	-20786.78
0.1025,0.8975	-20731.87
0.1048,0.8952	-20781.49
0.1193,0.8807	-20799.03
0.1164,0.8836	-20820.82
0.0878,0.9122	-20729.08
0.1076,0.8924	-20732.70
0.0907,0.9093	-20739.74
0.1126,0.8874	-20787.84
0.1221,0.8779	-20839.17
0.1204,0.8796	-20783.36
0.1031,0.8969	-20729.76
0.1074,0.8926	-20781.36
0.0962,0.9038	-20754.23
0.1098,0.8902	-20802.33
0.0940,0.9060	-20752.51
0.1257,0.8743	-20835.76
0.1172,0.8828	-20790.57
0.1251,0.8749	-20792.87
0.1002,0.8998	-20755.86
0.0991,0.9009	-20773.63
0.1029,0.8971	-20768.71
0.1148,0.8852	-20788.11
0.1072,0.8928	-20819.52
0.0995,0.9005	-20777.95
0.1103,0.8897	-20779.34
0.1115,0.8885	-20810.59
0.0996,0.9004	-20777.94
0.1082,0.8918	-20766.59
0.1031,0.8969	-20727.60
0.1037,0.8963	-20747.09
0.1047,0.8953	-20770.76
0.1202,0.8798	-20789.26
0.1086,0.8914	-20756.10
0.1047,0.8953	-20772.91
0.1131,0.8869	-20802.31
0.1062,0.8938	-20798.43
0.1077,0.8923	-20749.64
0.1229,0.8771	-20843.17
0.1211,0.8789	-20777.63
0.1063,0.8937	-20760.10
0.1180,0.8820	-20766.58
0.1091,0.8909	-20781.37
0.0941,0.9059	-20775.11
0.1150,0.8850	-20788.14
0.1246,0.8754	-20802.42
0.1050,0.8950	-20777.19
0.1182,0.8818	-20792.79
0.1034,0.8966	-20729.80
0.1098,0.8902	-20773.03
0.1062,0.8938	-20787.78
0.1015,0.8985	-20766.67
0.0969,0.9031	-20771.96
0.1123,0.8877	-20827.10
0.0970,0.9030	-20722.85
0.0950,0.9050	-20754.50
0.1073,0.8927	-20804.66
0.0899,0.9101	-20763.15
0.1040,0.8960	-20770.80
0.0987,0.9013	-20795.85
0.1147,0.8853	-20802.40
0.0995,0.9005	-20733.91
0.1120,0.8880	-20816.78
0.1022,0.8978	-20797.03
0.1067,0.8933	-20813.25
0.1101,0.8899	-20791.87
0.1200,0.8800	-20805.16
0.0997,0.9003	-20731.70
0.1041,0.8959	-20772.94
0.1036,0.8964	-20770.82
0.1096,0.8904	-20789.77
0.1029,0.8971	-20762.22
0.1260,0.8740	-20820.33
0.1065,0.8935	-20815.41
0.1004,0.8996	-20742.69
0.1123,0.8877	-20785.75
0.0970,0.9030	-20731.77
0.1078,0.8922	-20804.60
0.1128,0.8872	-20767.23
0.1153,0.8847	-20778.00
0.1158,0.8842	-20778.10
0.1224,0.8776	-20809.65
0.1088,0.8912	-20751.92
0.1132,0.8868	-20800.26
0.1100,0.8900	-20808.59
0.1038,0.8962	-20792.36
0.1141,0.8859	-20779.81
0.1007,0.8993	-20790.85
0.1039,0.8961	-20757.88
0.1082,0.8918	-20739.16
0.1213,0.8787	-20852.96
0.1112,0.8888	-20781.50
0.1015,0.8985	-20749.23
0.1039,0.8961	-20753.57
0.0974,0.9026	-20758.47
0.1060,0.8940	-20775.01
0.1187,0.8813	-20794.90
0.1056,0.8944	-20757.92
0.1109,0.8891	-20798.13
0.1157,0.8843	-20818.76
0.1046,0.8954	-20787.95
0.1156,0.8844	-20806.56
0.1096,0.8904	-20789.77
0.1078,0.8922	-20772.90
0.1097,0.8903	-20768.83
0.1064,0.8936	-20775.00
0.1107,0.8893	-20741.88
0.1132,0.8868	-20769.38
0.1133,0.8867	-20765.29
0.1108,0.8892	-20814.79
0.1144,0.8856	-20804.42
0.1069,0.8931	-20779.24
0.1210,0.8790	-20817.27
0.1078,0.8922	-20783.47
0.1074,0.8926	-20785.59
0.1015,0.8985	-20753.59
0.1057,0.8943	-20798.50
0.1033,0.8967	-20773.00
0.1156,0.8844	-20818.76
0.1109,0.8891	-20783.56
0.1133,0.8867	-20792.03
0.0999,0.9001	-20802.07
0.1135,0.8865	-20746.81
0.1027,0.8973	-20729.72
0.1228,0.8772	-20776.33
0.1078,0.8922	-20772.90
0.1062,0.8938	-20775.00
0.1130,0.8870	-20769.34
0.1124,0.8876	-20771.29
0.1018,0.8982	-20718.73
0.1205,0.8795	-20821.17
0.1165,0.8835	-20780.30
0.0976,0.9024	-20758.44
0.1218,0.8782	-20809.49
0.1191,0.8809	-20770.99
0.1113,0.8887	-20791.90
0.1096,0.8904	-20783.49
0.1062,0.8938	-20755.83
0.1008,0.8992	-20760.19
0.1148,0.8852	-20794.23
0.1066,0.8934	-20721.85
0.1180,0.8820	-20830.96
0.1109,0.8891	-20721.09
0.0999,0.9001	-20727.31
0.1083,0.8917	-20777.14
0.1113,0.8887	-20820.98
0.0983,0.9017	-20771.61
0.1101,0.8899	-20762.61
0.1053,0.8947	-20757.91
0.0971,0.9029	-20734.00
0.0997,0.9003	-20753.71
0.1129,0.8871	-20791.99
0.0972,0.9028	-20785.23
0.0971,0.9029	-20705.01
0.1064,0.8936	-20789.90
0.1062,0.8938	-20721.76
0.0885,0.9115	-20717.19
0.1177,0.8823	-20778.59
0.0983,0.9017	-20780.47
0.0968,0.9032	-20734.02
0.0991,0.9009	-20711.84
0.1046,0.8954	-20768.62
0.0927,0.9073	-20716.38
0.1112,0.8888	-20806.44
0.0892,0.9108	-20719.32
0.1222,0.8778	-20837.20
0.0987,0.9013	-20775.95
0.0976,0.9024	-20727.29
0.1056,0.8944	-20772.88
0.1004,0.8996	-20766.81
0.1061,0.8939	-20785.66
0.1104,0.8896	-20758.48
0.1151,0.8849	-20800.39
0.1134,0.8866	-20804.38
0.0930,0.9070	-20725.45
0.0952,0.9048	-20761.21
0.1008,0.8992	-20720.79
0.1066,0.8934	-20779.25
0.1192,0.8808	-20837.01
0.0993,0.9007	-20764.78
0.0980,0.9020	-20760.57
0.1088,0.8912	-20815.01
0.1059,0.8941	-20770.74
0.1021,0.8979	-20740.52
0.1134,0.8866	-20771.47
0.0877,0.9123	-20731.44
0.1131,0.8869	-20787.89
0.1014,0.8986	-20762.32
0.1071,0.8929	-20741.06
0.1179,0.8821	-20754.49
0.1108,0.8892	-20771.06
0.0950,0.9050	-20754.51
0.1085,0.8915	-20794.00
0.0863,0.9137	-20748.49
0.1105,0.8895	-20841.93
0.1020,0.8980	-20792.73
0.1149,0.8851	-20802.42
0.0931,0.9069	-20725.44
0.0982,0.9018	-20747.24
0.0929,0.9071	-20739.14
0.1048,0.8952	-20777.20
0.0989,0.9011	-20767.06
0.1058,0.8942	-20770.74
0.1066,0.8934	-20796.26
0.0999,0.9001	-20769.07
0.1167,0.8833	-20786.42
0.1089,0.8911	-20783.47
0.1013,0.8987	-20749.23
0.1158,0.8842	-20796.40
0.1090,0.8910	-20783.47
0.0903,0.9097	-20716.76
0.1164,0.8836	-20786.35
0.1205,0.8795	-20815.21
0.1029,0.8971	-20753.56
0.1115,0.8885	-20802.28
0.1098,0.8902	-20808.61
0.1053,0.8947	-20770.75
0.1041,0.8959	-20800.93
0.1268,0.8732	-20818.62
0.1084,0.8916	-20777.14
0.1045,0.8955	-20753.59
0.1151,0.8849	-20782.05
0.1161,0.8839	-20792.38
0.0924,0.9076	-20771.23
0.1134,0.8866	-20781.75
0.1041,0.8959	-20794.47
0.1111,0.8889	-20773.18
0.1101,0.8899	-20781.42
0.1169,0.8831	-20798.59
0.0867,0.9133	-20694.16
0.1095,0.8905	-20768.81
0.1113,0.8887	-20796.05
0.1043,0.8957	-20787.99
0.0948,0.9052	-20765.84
0.1074,0.8926	-20758.06
0.0929,0.9071	-20741.43
0.1165,0.8835	-20776.24
0.1188,0.8812	-20806.94
0.1012,0.8988	-20723.03
0.1028,0.8972	-20773.05
0.1040,0.8960	-20807.40
0.0968,0.9032	-20740.72
0.1079,0.8921	-20813.03
0.0997,0.9003	-20725.10
0.0962,0.9038	-20740.79
0.1062,0.8938	-20768.61
0.1111,0.8889	-20777.33
0.1127,0.8873	-20798.17
0.1038,0.8962	-20777.28
0.1154,0.8846	-20794.32
0.1072,0.8928	-20764.40
0.1028,0.8972	-20731.90
0.1097,0.8903	-20762.56
0.1064,0.8936	-20796.28
0.0924,0.9076	-20709.56
0.1055,0.8945	-20779.29
0.1144,0.8856	-20831.03
0.0983,0.9017	-20745.01
0.0988,0.9012	-20731.70
0.1042,0.8958	-20807.35
0.1067,0.8933	-20766.50
0.1000,0.9000	-20738.30
0.0979,0.9021	-20738.39
0.1021,0.8979	-20779.65
0.0997,0.9003	-20744.91
0.1057,0.8943	-20779.28
0.1001,0.8999	-20751.48
0.1022,0.8978	-20749.22
0.0945,0.9055	-20745.59
0.1121,0.8879	-20777.46
0.1069,0.8931	-20781.37
0.1214,0.8786	-20785.68
0.1119,0.8881	-20800.21
0.1105,0.8895	-20789.79
0.1156,0.8844	-20788.24
0.1022,0.8978	-20779.64
0.1132,0.8868	-20818.78
0.1034,0.8966	-20775.15
0.0972,0.9028	-20742.90
0.1152,0.8848	-20777.99
0.1085,0.8915	-20806.63
0.0987,0.9013	-20731.70
0.1012,0.8988	-20747.05
0.1051,0.8949	-20787.88
0.1070,0.8930	-20834.40
0.1071,0.8929	-20768.64
0.1015,0.8985	-20781.93
0.0999,0.9001	-20758.09
0.1014,0.8986	-20773.23
0.1072,0.8928	-20791.96
0.1102,0.8898	-20791.87
0.1230,0.8770	-20788.18
0.1177,0.8823	-20798.72
0.1119,0.8881	-20777.42
0.1100,0.8900	-20810.68
0.1038,0.8962	-20777.28
0.1084,0.8916	-20732.90
0.1195,0.8805	-20795.07
0.1056,0.8944	-20757.92
0.1140,0.8860	-20775.69
0.1075,0.8925	-20739.03
0.1043,0.8957	-20785.83
0.0950,0.9050	-20734.22
0.1120,0.8880	-20777.43
0.1055,0.8945	-20755.78
0.1098,0.8902	-20735.36
0.1089,0.8911	-20766.66
0.1019,0.8981	-20755.75
0.1052,0.8948	-20749.34
0.1243,0.8757	-20804.26
0.0960,0.9040	-20716.16
0.1099,0.8901	-20752.12
0.0953,0.9047	-20752.19
0.1035,0.8965	-20781.63
0.1053,0.8947	-20766.47
0.1144,0.8856	-20790.09
0.1038,0.8962	-20800.99
0.0994,0.9006	-20736.11
0.1051,0.8949	-20760.04
0.1057,0.8943	-20787.83
0.1101,0.8899	-20798.14
0.1106,0.8894	-20812.73
0.0999,0.9001	-20744.90
0.1098,0.8902	-20762.57
0.1081,0.8919	-20800.35
0.1110,0.8890	-20764.83
0.1028,0.8972	-20749.22
0.0984,0.9016	-20758.29
0.0992,0.9008	-20749.35
0.1078,0.8922	-20749.65
0.1181,0.8819	-20808.84
0.1028,0.8972	-20788.22
0.1030,0.8970	-20749.23
0.1076,0.8924	-20775.01
0.1202,0.8798	-20815.15
0.1039,0.8961	-20788.04
0.0899,0.9101	-20737.68
0.0948,0.9052	-20763.60
0.1072,0.8928	-20791.96
0.1069,0.8931	-20779.24
0.1108,0.8892	-20796.05
0.1011,0.8989	-20753.61
0.0955,0.9045	-20774.63
0.1072,0.8928	-20749.56
0.1020,0.8980	-20757.92
0.0945,0.9055	-20754.64
0.1094,0.8906	-20793.96
0.1061,0.8939	-20757.96
0.1072,0.8928	-20758.04
0.1002,0.8998	-20755.86
0.1095,0.8905	-20758.34
0.1081,0.8919	-20758.14
0.0947,0.9053	-20738.78
0.0950,0.9050	-20765.77
0.0965,0.9035	-20760.89
0.1158,0.8842	-20769.97
0.1051,0.8949	-20820.01
0.0989,0.9011	-20740.54
0.1082,0.8918	-20813.00
0.0989,0.9011	-20714.03
0.0967,0.9033	-20756.38
0.1196,0.8804	-20815.06
0.0864,0.9136	-20757.88
0.0904,0.9096	-20749.07
0.1073,0.8927	-20770.77
0.1040,0.8960	-20781.57
0.1118,0.8882	-20793.99
0.1073,0.8927	-20764.41
0.1031,0.8969	-20755.72
0.0991,0.9009	-20727.29
0.1111,0.8889	-20773.18
0.1041,0.8959	-20762.18
0.1094,0.8906	-20758.32
0.1169,0.8831	-20780.40
0.1066,0.8934	-20789.88
0.1139,0.8861	-20753.10
0.1062,0.8938	-20781.39
0.1010,0.8990	-20747.05
0.1031,0.8969	-20757.88
0.0978,0.9022	-20718.40
0.1154,0.8846	-20786.17
0.0996,0.9004	-20760.33
0.1143,0.8857	-20783.94
0.1125,0.8875	-20763.04
0.1064,0.8936	-20743.07
0.0964,0.9036	-20758.66
0.1153,0.8847	-20790.22
0.1043,0.8957	-20787.99
0.1073,0.8927	-20777.12
0.0963,0.9037	-20765.40
0.1127,0.8873	-20785.78
0.0977,0.9023	-20773.98
0.1105,0.8895	-20783.53
0.0852,0.9148	-20737.21
0.1125,0.8875	-20758.92
0.1000,0.9000	-20731.71
0.1139,0.8861	-20794.15
0.1201,0.8799	-20787.25
0.1182,0.8818	-20772.68
0.1077,0.8923	-20736.95
0.1028,0.8972	-20775.22
0.1063,0.8937	-20770.74
0.1036,0.8964	-20768.66
0.1005,0.8995	-20729.54
0.1102,0.8898	-20752.18
0.1164,0.8836	-20780.28
0.1061,0.8939	-20762.22
0.1128,0.8872	-20787.86
0.1192,0.8808	-20825.00
0.1067,0.8933	-20764.38
0.1034,0.8966	-20762.20
0.1157,0.8843	-20794.36
0.1167,0.8833	-20806.66
0.1185,0.8815	-20776.80
0.1044,0.8956	-20770.78
0.1007,0.8993	-20749.25
0.1152,0.8848	-20790.22
0.1105,0.8895	-20808.56
0.0970,0.9030	-20749.61
0.1031,0.8969	-20751.39
0.1170,0.8830	-20784.47
0.1057,0.8943	-20764.34
0.1177,0.8823	-20808.79
0.1204,0.8796	-20795.29
0.0995,0.9005	-20775.76
0.1100,0.8900	-20766.77
0.1055,0.8945	-20770.74
0.1135,0.8865	-20820.82
0.1018,0.8982	-20716.56
0.1024,0.8976	-20768.75
0.1110,0.8890	-20800.21
0.1076,0.8924	-20760.20
0.1135,0.8865	-20814.66
0.1079,0.8921	-20787.69
0.0900,0.9100	-20712.19
0.1097,0.8903	-20777.21
0.1122,0.8878	-20810.56
0.1043,0.8957	-20753.58
0.1255,0.8745	-20818.26
0.0927,0.9073	-20748.33
0.1032,0.8968	-20777.33
0.1084,0.8916	-20772.93
0.1145,0.8855	-20779.88
0.1056,0.8944	-20732.29
0.1101,0.8899	-20756.34
0.1000,0.9000	-20766.87
0.1021,0.8979	-20764.43
0.0962,0.9038	-20752.00
0.1036,0.8964	-20721.20
0.1178,0.8822	-20802.76
0.1198,0.8802	-20817.09
0.1045,0.8955	-20751.44
0.1072,0.8928	-20768.64
0.0997,0.9003	-20775.71
0.1033,0.8967	-20723.31
0.1098,0.8902	-20770.94
0.1097,0.8903	-20812.81
0.0982,0.9018	-20736.15
0.1141,0.8859	-20761.38
0.1008,0.8992	-20758.00
0.1156,0.8844	-20806.55
0.1039,0.8961	-20770.80
0.1141,0.8859	-20785.96
0.1038,0.8962	-20777.28
0.1064,0.8936	-20747.33
0.0991,0.9009	-20742.74
0.1130,0.8870	-20773.45
0.1051,0.8949	-20751.48
0.1090,0.8910	-20775.07
0.1039,0.8961	-20742.79
0.1018,0.8982	-20773.17
0.0947,0.9053	-20720.72
0.1157,0.8843	-20796.40
0.1062,0.8938	-20749.45
0.0948,0.9052	-20727.48
0.1240,0.8760	-20798.33
0.1099,0.8901	-20777.23
0.1068,0.8932	-20813.23
0.1150,0.8850	-20771.81
0.1023,0.8977	-20823.06
0.1011,0.8989	-20744.87
0.1087,0.8913	-20796.09
0.1052,0.8948	-20790.01
0.1149,0.8851	-20788.12
0.1183,0.8817	-20782.77
0.0965,0.9035	-20760.88
0.1118,0.8882	-20771.19
0.1012,0.8988	-20762.34
0.1084,0.8916	-20775.03
0.1104,0.8896	-20829.43
0.0991,0.9009	-20769.22
0.1070,0.8930	-20800.46
0.1096,0.8904	-20768.82
0.1067,0.8933	-20749.50
0.1094,0.8906	-20823.32
0.1114,0.8886	-20808.51
0.1040,0.8960	-20753.57
0.1163,0.8837	-20802.56
0.0962,0.9038	-20711.67
0.1022,0.8978	-20736.18
0.1056,0.8944	-20775.02
0.1059,0.8941	-20766.48
0.1035,0.8965	-20790.26
0.1190,0.8810	-20778.94
0.1085,0.8915	-20768.72
0.1017,0.8983	-20749.22
0.1023,0.8977	-20777.45
0.0981,0.9019	-20776.10
0.0936,0.9064	-20725.37
0.1051,0.8949	-20768.61
0.1002,0.8998	-20736.11
0.1136,0.8864	-20767.41
0.1015,0.8985	-20757.95
0.0999,0.9001	-20775.68
0.0980,0.9020	-20756.13
0.1131,0.8869	-20748.76
0.0922,0.9078	-20709.59
0.0983,0.9017	-20793.78
0.0951,0.9049	-20758.98
0.0847,0.9153	-20704.16
0.0937,0.9063	-20768.46
0.0999,0.9001	-20742.70
0.0910,0.9090	-20700.52
0.1065,0.8935	-20747.35
0.0986,0.9014	-20725.07
0.0994,0.9006	-20764.76
0.1015,0.8985	-20742.68
0.1113,0.8887	-20754.50
0.0958,0.9042	-20734.12
0.1029,0.8971	-20775.21
0.1088,0.8912	-20764.54
0.1024,0.8976	-20781.78
0.1054,0.8946	-20777.16
0.0999,0.9001	-20740.50
0.1003,0.8997	-20744.88
0.1217,0.8783	-20819.36
0.1107,0.8893	-20777.29
0.1031,0.8969	-20740.58
0.1149,0.8851	-20804.46
0.1105,0.8895	-20796.04
0.1023,0.8977	-20762.25
0.1134,0.8866	-20748.86
0.0955,0.9045	-20740.89
0.0965,0.9035	-20749.70
0.1132,0.8868	-20777.61
0.1114,0.8886	-20739.98
0.1021,0.8979	-20792.70
0.1005,0.8995	-20714.20
0.0991,0.9009	-20767.01
0.1165,0.8835	-20822.84
0.1077,0.8923	-20783.47
0.1027,0.8973	-20773.06
0.1097,0.8903	-20791.87
0.1071,0.8929	-20787.73
0.1151,0.8849	-20806.52
0.1108,0.8892	-20787.71
0.1125,0.8875	-20810.55
0.1047,0.8953	-20779.35
0.1198,0.8802	-20807.11
0.1066,0.8934	-20755.87
0.1202,0.8798	-20795.25
0.0952,0.9048	-20727.43
0.1024,0.8976	-20760.07
0.1019,0.8981	-20755.75
0.1153,0.8847	-20806.53
0.0978,0.9022	-20718.40
0.1119,0.8881	-20767.07
0.1172,0.8828	-20792.59
0.0916,0.9084	-20744.07
0.1069,0.8931	-20777.12
0.1006,0.8994	-20738.30
0.1059,0.8941	-20781.41
0.1107,0.8893	-20777.30
0.1090,0.8910	-20817.08
0.1032,0.8968	-20740.58
0.1064,0.8936	-20745.21
0.0978,0.9022	-20709.51
0.1000,0.9000	-20742.70
0.1093,0.8907	-20796.06
0.1051,0.8949	-20768.61
0.1081,0.8919	-20770.80
0.0980,0.9020	-20760.58
0.0838,0.9162	-20704.46
0.1102,0.8898	-20785.60
0.1018,0.8982	-20744.87
0.0941,0.9059	-20772.87
0.0952,0.9048	-20752.20
0.1079,0.8921	-20783.47
0.0878,0.9122	-20740.79
0.1087,0.8913	-20770.84
0.1172,0.8828	-20832.96
0.1029,0.8971	-20777.37
0.1100,0.8900	-20791.87
0.1071,0.8929	-20762.27
0.0999,0.9001	-20797.66
0.1036,0.8964	-20753.56
0.1059,0.8941	-20757.94
0.1078,0.8922	-20823.62
0.1058,0.8942	-20766.47
0.1037,0.8963	-20762.19
0.1132,0.8868	-20787.90
0.1096,0.8904	-20783.49
0.1038,0.8962	-20716.91
0.1149,0.8851	-20779.97
0.1125,0.8875	-20771.31
0.0966,0.9034	-20747.45
0.0998,0.9002	-20766.89
0.1141,0.8859	-20783.91
0.1099,0.8901	-20785.59
0.1117,0.8883	-20783.62
0.1068,0.8932	-20815.36
0.0941,0.9059	-20766.07
0.0981,0.9019	-20762.78
0.1107,0.8893	-20737.70
0.1077,0.8923	-20800.39
0.1087,0.8913	-20760.32
0.1048,0.8952	-20749.31
0.1069,0.8931	-20724.05
0.1034,0.8966	-20770.84
0.1126,0.8874	-20785.77
0.1002,0.8998	-20808.53
0.1036,0.8964	-20788.09
0.1235,0.8765	-20825.59
0.1073,0.8927	-20766.53
0.1047,0.8953	-20809.40
0.1118,0.8882	-20756.69
0.0988,0.9012	-20727.28
0.1074,0.8926	-20787.71
0.1111,0.8889	-20781.49
0.1159,0.8841	-20782.19
0.1053,0.8947	-20779.31
0.1093,0.8907	-20752.02
0.1040,0.8960	-20768.64
0.1179,0.8821	-20758.52
0.1104,0.8896	-20785.61
0.1145,0.8855	-20808.52
0.1046,0.8954	-20749.30
0.1141,0.8859	-20781.86
0.1105,0.8895	-20781.45
0.1112,0.8888	-20764.87
0.1127,0.8873	-20777.54
0.1172,0.8828	-20824.89
0.1072,0.8928	-20758.05
0.1065,0.8935	-20794.14
0.0908,0.9092	-20744.30
0.1025,0.8975	-20751.39
0.1189,0.8811	-20835.00
0.1094,0.8906	-20770.90
0.1019,0.8981	-20753.57
0.0947,0.9053	-20750.08
0.0974,0.9026	-20729.52
0.0986,0.9014	-20767.11
0.1148,0.8852	-20777.90
0.0998,0.9002	-20777.90
0.0889,0.9111	-20754.32
0.1142,0.8858	-20831.05
0.0994,0.9006	-20760.36
0.1067,0.8933	-20770.75
0.1235,0.8765	-20813.84
0.1039,0.8961	-20755.72
0.0988,0.9012	-20764.87
0.1117,0.8883	-20806.43
0.1050,0.8950	-20817.90
0.1108,0.8892	-20775.22
0.1215,0.8785	-20795.60
0.1043,0.8957	-20766.48
0.1076,0.8924	-20770.78
0.1059,0.8941	-20770.74
0.1011,0.8989	-20760.16
0.1090,0.8910	-20758.26
0.1247,0.8753	-20794.65
0.0929,0.9071	-20755.08
0.1192,0.8808	-20799.00
0.1020,0.8980	-20749.22
0.1122,0.8878	-20800.22
0.1158,0.8842	-20763.89
0.1136,0.8864	-20802.33
0.1174,0.8826	-20780.51
0.1056,0.8944	-20753.65
0.1033,0.8967	-20792.46
0.1021,0.8979	-20812.27
0.1143,0.8857	-20831.04
0.1084,0.8916	-20789.79
0.1066,0.8934	-20806.89
0.1119,0.8881	-20764.99
0.1066,0.8934	-20777.12
0.1066,0.8934	-20762.24
0.1181,0.8819	-20798.79
0.0996,0.9004	-20766.93
0.1135,0.8865	-20779.71
0.0993,0.9007	-20760.37
0.1034,0.8966	-20772.99
0.1075,0.8925	-20743.26
0.1176,0.8824	-20746.32
0.0933,0.9067	-20764.05
0.1046,0.8954	-20775.06
0.1069,0.8931	-20747.40
0.1106,0.8894	-20785.62
0.1088,0.8912	-20783.47
0.1141,0.8859	-20824.91
0.1101,0.8899	-20773.06
0.0961,0.9039	-20734.08
0.1183,0.8817	-20790.79
0.1096,0.8904	-20777.20
0.1127,0.8873	-20791.98
0.1097,0.8903	-20768.83
0.0951,0.9049	-20727.44
0.0930,0.9070	-20704.95
0.1171,0.8829	-20798.63
0.1097,0.8903	-20773.02
0.1096,0.8904	-20787.68
0.1086,0.8914	-20798.20
0.1052,0.8948	-20777.17
0.0965,0.9035	-20740.76
0.0982,0.9018	-20782.73
0.1087,0.8913	-20821.34
0.1151,0.8849	-20845.26
0.1126,0.8874	-20789.91
0.1049,0.8951	-20736.45
0.1040,0.8960	-20796.64
0.0949,0.9051	-20734.23
0.1105,0.8895	-20760.58
0.1130,0.8870	-20750.81
0.1193,0.8807	-20779.03
0.1165,0.8835	-20784.36
0.0954,0.9046	-20772.41
0.0981,0.9019	-20758.35
0.1083,0.8917	-20810.87
0.1196,0.8804	-20829.03
0.1005,0.8995	-20729.53
0.1092,0.8908	-20783.47
0.1008,0.8992	-20766.76
0.1085,0.8915	-20791.89
0.1170,0.8830	-20790.52
0.1179,0.8821	-20760.54
0.0969,0.9031	-20707.22
0.1072,0.8928	-20775.00
0.1025,0.8975	-20773.08
0.1056,0.8944	-20792.11
0.1156,0.8844	-20776.02
0.1136,0.8864	-20777.68
0.1067,0.8933	-20755.88
0.1097,0.8903	-20796.05
0.1080,0.8920	-20768.69
0.1135,0.8865	-20777.66
0.1113,0.8887	-20783.59
0.1076,0.8924	-20745.39
0.1031,0.8969	-20796.81
0.1059,0.8941	-20794.21
0.1173,0.8827	-20806.73
0.1088,0.8912	-20798.19
0.1011,0.8989	-20747.05
0.0999,0.9001	-20766.88
0.1064,0.8936	-20764.36
0.1032,0.8968	-20792.47
0.1063,0.8937	-20726.02
0.0916,0.9084	-20744.06
0.1018,0.8982	-20810.17
0.1087,0.8913	-20796.09
0.1087,0.8913	-20787.67
0.1010,0.8990	-20773.29
0.1225,0.8775	-20807.69
0.0993,0.9007	-20762.57
0.1171,0.8829	-20766.29
0.1082,0.8918	-20783.46
0.1084,0.8916	-20783.46
0.0926,0.9074	-20743.77
0.1219,0.8781	-20811.50
0.1050,0.8950	-20764.33
0.0987,0.9013	-20727.28
0.0896,0.9104	-20749.38
0.1010,0.8990	-20757.98
0.1106,0.8894	-20762.69
0.1098,0.8902	-20804.43
0.1098,0.8902	-20756.28
0.0993,0.9007	-20738.32
0.0976,0.9024	-20758.44
0.1023,0.8977	-20783.97
0.1081,0.8919	-20768.69
0.1109,0.8891	-20758.58
0.1180,0.8820	-20800.79
0.1153,0.8847	-20790.23
0.1091,0.8909	-20804.47
0.1009,0.8991	-20806.11
0.1055,0.8945	-20781.43
0.1038,0.8962	-20772.97
0.1016,0.8984	-20744.86
0.1191,0.8809	-20837.00
0.1018,0.8982	-20836.30
0.1200,0.8800	-20799.18
0.1016,0.8984	-20786.27
0.1115,0.8885	-20796.06
0.1034,0.8966	-20777.32
0.1025,0.8975	-20742.71
0.1080,0.8920	-20775.02
0.1035,0.8965	-20772.99
0.0991,0.9009	-20740.53
0.1304,0.8696	-20804.66
0.0936,0.9064	-20725.37
0.1025,0.8975	-20766.58
0.1035,0.8965	-20766.51
0.1075,0.8925	-20800.40
0.1034,0.8966	-20768.68
0.1124,0.8876	-20752.70
0.1021,0.8979	-20790.53
0.1044,0.8956	-20794.41
0.1113,0.8887	-20779.43
0.1069,0.8931	-20796.23
0.1001,0.8999	-20736.11
0.1021,0.8979	-20777.47
0.0963,0.9037	-20785.57
0.1150,0.8850	-20810.59
0.1133,0.8867	-20808.49
0.1079,0.8921	-20787.69
0.0991,0.9009	-20753.77
0.1057,0.8943	-20777.15
0.0987,0.9013	-20747.18
0.1068,0.8932	-20779.25
0.0996,0.9004	-20729.50
0.1160,0.8840	-20796.43
0.0857,0.9143	-20701.48
0.1003,0.8997	-20773.40
0.1169,0.8831	-20855.21
0.1037,0.8963	-20801.00
0.1029,0.8971	-20762.22
0.1230,0.8770	-20817.64
0.0977,0.9023	-20769.52
0.1143,0.8857	-20759.38
0.1110,0.8890	-20785.64
0.1038,0.8962	-20740.63
0.1303,0.8697	-20848.28
0.1295,0.8705	-20838.56
0.1013,0.8987	-20749.23
0.1020,0.8980	-20733.99
0.1078,0.8922	-20770.78
0.1085,0.8915	-20781.36
0.1306,0.8694	-20833.17
0.1217,0.8783	-20783.78
0.1022,0.8978	-20755.74
0.1033,0.8967	-20757.88
0.1059,0.8941	-20783.54
0.1160,0.8840	-20810.65
0.1188,0.8812	-20810.94
0.0926,0.9074	-20727.79
0.1151,0.8849	-20782.03
0.0981,0.9019	-20731.72
0.1135,0.8865	-20818.77
0.1193,0.8807	-20797.03
0.1178,0.8822	-20798.74
0.1082,0.8918	-20808.78
0.0955,0.9045	-20738.65
0.0960,0.9040	-20763.26
0.1128,0.8872	-20806.42
0.1238,0.8762	-20817.83
0.1213,0.8787	-20849.00
0.0999,0.9001	-20758.09
0.1159,0.8841	-20784.23
0.1035,0.8965	-20798.89
0.1034,0.8966	-20768.68
0.1239,0.8761	-20804.15
0.1057,0.8943	-20742.98
0.1090,0.8910	-20762.46
0.1109,0.8891	-20806.45
0.1173,0.8827	-20778.48
0.0865,0.9135	-20731.91
0.1156,0.8844	-20808.59
0.1037,0.8963	-20807.48
0.1146,0.8854	-20790.13
0.1019,0.8981	-20729.63
0.1140,0.8860	-20777.74
0.1069,0.8931	-20804.72
0.1064,0.8936	-20770.74
0.0905,0.9095	-20783.67
0.1115,0.8885	-20764.93
0.0981,0.9019	-20764.99
0.1161,0.8839	-20806.59
0.1159,0.8841	-20774.07
0.1065,0.8935	-20817.54
0.1007,0.8993	-20779.91
0.1092,0.8908	-20754.09
0.1029,0.8971	-20790.37
0.1103,0.8897	-20783.52
0.1194,0.8806	-20783.06
0.0950,0.9050	-20777.04
0.1111,0.8889	-20773.18
0.1067,0.8933	-20787.75
0.1060,0.8940	-20783.53
0.1139,0.8861	-20775.67
0.1073,0.8927	-20755.94
0.1077,0.8923	-20789.81
0.1010,0.8990	-20744.87
0.1066,0.8934	-20826.02
0.1114,0.8886	-20731.67
0.1069,0.8931	-20779.24
0.0976,0.9024	-20742.85
0.1047,0.8953	-20802.95
0.1117,0.8883	-20804.36
0.1047,0.8953	-20762.18
0.1064,0.8936	-20781.38
0.1149,0.8851	-20833.05
0.0917,0.9083	-20709.64
0.0984,0.9016	-20747.22
0.1129,0.8871	-20792.00
0.1091,0.8909	-20770.87
0.1046,0.8954	-20800.82
0.1183,0.8817	-20802.84
0.1108,0.8892	-20789.80
0.1148,0.8852	-20761.57
0.1084,0.8916	-20779.25
0.1063,0.8937	-20768.61
0.1013,0.8987	-20781.98
0.1125,0.8875	-20779.57
0.1048,0.8952	-20775.05
0.1159,0.8841	-20751.71
0.1043,0.8957	-20781.54
0.1132,0.8868	-20802.31
0.1022,0.8978	-20790.51
0.1018,0.8982	-20770.99
0.1108,0.8892	-20781.47
0.1023,0.8977	-20753.56
0.1021,0.8979	-20794.88
0.1076,0.8924	-20770.78
0.1104,0.8896	-20798.13
0.1100,0.8900	-20791.87
0.1028,0.8972	-20775.22
0.1142,0.8858	-20763.44
0.1050,0.8950	-20787.90
0.1081,0.8919	-20751.81
0.0981,0.9019	-20716.19
0.1084,0.8916	-20764.50
0.1107,0.8893	-20768.96
0.1080,0.8920	-20768.68
0.1066,0.8934	-20745.24
0.1009,0.8991	-20747.05
0.0963,0.9037	-20756.45
0.1058,0.8942	-20768.61
0.1015,0.8985	-20736.14
0.1005,0.8995	-20784.33
0.1096,0.8904	-20760.44
0.1015,0.8985	-20777.58
0.1152,0.8848	-20777.99
0.0852,0.9148	-20727.75
0.1119,0.8881	-20754.63
0.1106,0.8894	-20787.70
0.1019,0.8981	-20723.10
0.1001,0.8999	-20773.45
0.1165,0.8835	-20798.53
0.0997,0.9003	-20773.52
0.1117,0.8883	-20779.47
0.1100,0.8900	-20743.77
0.1189,0.8811	-20786.93
0.0957,0.9043	-20752.11
0.1089,0.8911	-20762.45
0.1031,0.8969	-20768.70
0.0994,0.9006	-20720.68
0.0978,0.9022	-20756.17
0.1119,0.8881	-20798.14
0.0962,0.9038	-20718.39
0.0883,0.9117	-20714.90
0.1022,0.8978	-20742.70
0.1069,0.8931	-20779.24
0.1066,0.8934	-20770.75
0.1043,0.8957	-20747.13
0.0982,0.9018	-20760.54
0.0959,0.9041	-20754.31
0.1070,0.8930	-20789.85
0.0999,0.9001	-20736.11
0.1064,0.8936	-20796.29
0.1170,0.8830	-20798.61
0.1156,0.8844	-20802.49
0.0981,0.9019	-20758.34
0.1045,0.8955	-20729.95
0.1068,0.8932	-20785.62
0.1069,0.8931	-20764.38
0.1028,0.8972	-20734.06
0.1171,0.8829	-20760.24
0.1002,0.8998	-20753.67
0.1066,0.8934	-20781.38
0.1135,0.8865	-20789.99
0.0961,0.9039	-20754.25
0.1089,0.8911	-20777.16
0.1120,0.8880	-20769.16
0.1094,0.8906	-20775.10
0.1015,0.8985	-20762.31
0.1034,0.8966	-20783.80
0.1045,0.8955	-20770.77
0.1118,0.8882	-20781.56
0.1116,0.8884	-20773.24
0.0958,0.9042	-20747.59
0.0987,0.9013	-20778.14
0.1117,0.8883	-20808.50
0.1104,0.8896	-20783.53
0.1120,0.8880	-20750.51
0.1146,0.8854	-20802.40
0.1086,0.8914	-20802.41
0.1054,0.8946	-20787.85
0.1062,0.8938	-20755.83
0.1003,0.8997	-20753.66
0.1142,0.8858	-20745.00
0.1163,0.8837	-20762.01
0.1073,0.8927	-20770.77
0.1180,0.8820	-20780.67
0.1079,0.8921	-20770.79
0.1109,0.8891	-20777.31
0.1015,0.8985	-20777.57
0.1017,0.8983	-20779.72
0.1111,0.8889	-20785.65
0.1108,0.8892	-20793.96
0.0972,0.9028	-20742.90
0.1182,0.8818	-20766.65
0.1006,0.8994	-20755.83
0.1034,0.8966	-20773.00
0.1126,0.8874	-20808.49
0.0909,0.9091	-20712.04
0.1143,0.8857	-20783.94
0.1137,0.8863	-20790.02
0.1150,0.8850	-20782.01
0.1120,0.8880	-20789.86
0.1114,0.8886	-20748.28
0.0953,0.9047	-20758.94
0.1059,0.8941	-20802.75
0.1083,0.8917	-20787.68
0.1237,0.8763	-20835.43
0.1010,0.8990	-20775.47
0.1087,0.8913	-20800.30
0.1080,0.8920	-20789.80
0.1196,0.8804	-20819.05
0.1034,0.8966	-20751.40
0.1246,0.8754	-20829.71
0.1201,0.8799	-20801.20
0.1102,0.8898	-20787.69
0.0945,0.9055	-20788.52
0.1058,0.8942	-20757.94
0.1175,0.8825	-20800.71
0.1203,0.8797	-20811.19
0.1170,0.8830	-20790.52
0.1092,0.8908	-20762.49
0.0935,0.9065	-20716.29
0.1061,0.8939	-20813.37
0.0982,0.9018	-20725.06
0.1078,0.8922	-20804.60
0.1229,0.8771	-20778.34
0.1124,0.8876	-20789.89
0.0925,0.9075	-20771.19
0.1174,0.8826	-20784.55
0.0972,0.9028	-20747.36
0.1128,0.8872	-20752.81
0.1186,0.8814	-20786.85
0.1019,0.8981	-20738.34
0.1047,0.8953	-20736.43
0.1052,0.8948	-20770.75
0.1088,0.8912	-20775.06
0.1027,0.8973	-20786.07
0.1207,0.8793	-20769.55
0.1105,0.8895	-20804.39
0.0936,0.9064	-20775.33
0.1055,0.8945	-20813.49
0.1042,0.8958	-20757.88
0.1028,0.8972	-20796.89
0.1091,0.8909	-20766.67
0.1036,0.8964	-20781.61
0.0959,0.9041	-20718.40
0.0963,0.9037	-20747.51
0.1178,0.8822	-20782.63
0.1023,0.8977	-20755.73
0.1046,0.8954	-20766.47
0.1029,0.8971	-20744.89
0.0945,0.9055	-20720.73
0.1106,0.8894	-20808.55
0.1188,0.8812	-20812.95
0.1126,0.8874	-20800.23
0.0940,0.9060	-20738.91
0.1077,0.8923	-20804.62
0.1001,0.8999	-20729.52
0.0948,0.9052	-20747.79
0.1094,0.8906	-20798.16
0.1114,0.8886	-20764.90
0.0981,0.9019	-20753.91
0.1224,0.8776	-20815.56
0.1132,0.8868	-20810.55
0.1047,0.8953	-20770.77
0.0997,0.9003	-20758.12
0.1130,0.8870	-20798.19
0.1022,0.8978	-20742.70
0.1133,0.8867	-20792.03
0.1087,0.8913	-20775.05
0.0972,0.9028	-20749.59
0.0933,0.9067	-20723.13
0.1020,0.8980	-20773.14
0.1234,0.8766	-20839.30
0.1045,0.8955	-20764.33
0.1073,0.8927	-20817.38
0.1116,0.8884	-20787.76
0.1045,0.8955	-20747.14
0.1031,0.8969	-20794.65
0.1025,0.8975	-20751.39
0.1068,0.8932	-20753.76
0.1002,0.8998	-20747.08
0.0915,0.9085	-20711.95
0.1131,0.8869	-20810.55
0.0944,0.9056	-20711.70
0.1081,0.8919	-20779.24
0.1054,0.8946	-20783.58
0.1094,0.8906	-20731.07
0.1048,0.8952	-20764.33
0.1191,0.8809	-20784.97
0.1037,0.8963	-20757.88
0.1051,0.8949	-20762.19
0.1151,0.8849	-20773.88
0.1010,0.8990	-20760.17
0.1090,0.8910	-20804.48
0.1159,0.8841	-20810.64
0.0932,0.9068	-20714.05
0.1175,0.8825	-20780.53
0.1124,0.8876	-20806.42
0.1009,0.8991	-20755.80
0.1053,0.8947	-20819.95
0.1076,0.8924	-20753.85
0.1012,0.8988	-20764.52
0.1091,0.8909	-20775.07
0.1006,0.8994	-20742.68
0.1040,0.8960	-20742.80
0.1021,0.8979	-20751.39
0.0997,0.9003	-20777.92
0.1056,0.8944	-20789.97
0.1129,0.8871	-20773.45
0.1043,0.8957	-20762.18
0.1051,0.8949	-20775.04
0.1035,0.8965	-20801.06
0.0963,0.9037	-20769.89
0.1034,0.8966	-20785.95
0.1190,0.8810	-20820.98
0.1049,0.8951	-20757.89
0.1139,0.8861	-20783.89
0.1012,0.8988	-20733.95
0.1085,0.8915	-20720.26
0.1070,0.8930	-20766.51
0.1159,0.8841	-20782.19
0.0999,0.9001	-20791.07
0.0950,0.9050	-20743.23
0.1007,0.8993	-20782.09
0.1315,0.8685	-20844.81
0.1031,0.8969	-20753.56
0.1035,0.8965	-20766.51
0.1021,0.8979	-20757.92
0.0972,0.9028	-20780.79
0.1093,0.8907	-20766.70
0.1095,0.8905	-20802.35
0.1042,0.8958	-20800.91
0.1036,0.8964	-20764.35
0.0949,0.9051	-20750.03
0.1038,0.8962	-20772.96
0.1056,0.8944	-20777.15
0.1096,0.8904	-20756.25
0.1111,0.8889	-20752.39
0.1018,0.8982	-20738.33
0.1032,0.8968	-20747.07
0.1039,0.8961	-20788.05
0.1097,0.8903	-20777.21
0.1019,0.8981	-20744.87
0.1021,0.8979	-20768.79
0.1065,0.8935	-20785.63
0.1061,0.8939	-20762.22
0.0946,0.9054	-20745.57
0.1151,0.8849	-20780.00
0.1120,0.8880	-20781.58
0.1038,0.8962	-20772.96
0.0953,0.9047	-20749.93
0.1135,0.8865	-20789.99
0.1012,0.8988	-20729.57
0.1036,0.8964	-20747.09
0.1099,0.8901	-20768.86
0.0950,0.9050	-20747.74
0.0955,0.9045	-20765.63
0.1077,0.8923	-20739.06
0.1107,0.8893	-20793.96
0.0945,0.9055	-20734.29
0.0985,0.9015	-20778.21
0.0920,0.9080	-20750.82
0.1013,0.8987	-20736.13
0.1182,0.8818	-20812.88
0.1219,0.8781	-20831.25
0.0963,0.9037	-20772.12
0.1097,0.8903	-20779.30
0.0980,0.9020	-20776.13
0.1063,0.8937	-20757.97
0.1208,0.8792	-20797.39
0.1082,0.8918	-20753.94
0.1001,0.8999	-20834.91
0.1055,0.8945	-20781.43
0.0972,0.9028	-20776.35
0.0998,0.9002	-20771.30
0.1145,0.8855	-20783.98
0.1098,0.8902	-20825.36
0.1062,0.8938	-20770.74
0.1044,0.8956	-20777.22
0.0958,0.9042	-20767.79
0.0995,0.9005	-20751.53
0.1107,0.8893	-20812.71
0.0979,0.9021	-20760.59
0.1092,0.8908	-20791.87
0.1041,0.8959	-20736.36
0.0975,0.9025	-20776.25
0.1037,0.8963	-20749.25
0.1089,0.8911	-20796.08
0.0973,0.9027	-20762.95
0.1136,0.8864	-20779.73
0.1130,0.8870	-20787.88
0.0978,0.9022	-20785.05
0.0966,0.9034	-20751.92
0.1016,0.8984	-20755.76
0.0972,0.9028	-20733.99
0.1204,0.8796	-20765.48
0.1038,0.8962	-20809.62
0.0876,0.9124	-20726.79
0.0984,0.9016	-20760.50
0.1139,0.8861	-20816.71
0.1081,0.8919	-20794.02
0.0986,0.9014	-20751.63
0.1064,0.8936	-20777.13
0.0915,0.9085	-20757.87
0.0981,0.9019	-20800.49
0.1122,0.8878	-20796.08
0.1055,0.8945	-20785.71
0.1024,0.8976	-20773.10
0.1026,0.8974	-20749.22
0.1028,0.8972	-20738.39
0.1020,0.8980	-20742.69
0.1025,0.8975	-20747.05
0.1226,0.8774	-20831.35
0.1152,0.8848	-20802.44
0.0961,0.9039	-20767.71
0.1109,0.8891	-20760.66
0.1153,0.8847	-20816.72
0.1039,0.8961	-20777.27
0.1160,0.8840	-20768.00
0.1146,0.8854	-20814.66
0.1164,0.8836	-20792.44
0.1080,0.8920	-20798.24
0.1091,0.8909	-20783.47
0.1082,0.8918	-20775.03
0.1113,0.8887	-20804.36
0.1175,0.8825	-20764.41
0.1051,0.8949	-20749.34
0.1061,0.8939	-20819.76
0.1047,0.8953	-20779.35
0.1030,0.8970	-20764.38
0.1089,0.8911	-20793.98
0.1096,0.8904	-20793.96
0.1224,0.8776	-20827.37
0.1060,0.8940	-20777.14
0.0886,0.9114	-20763.79
0.1088,0.8912	-20779.26
0.1161,0.8839	-20794.41
0.1152,0.8848	-20771.88
0.1166,0.8834	-20796.52
0.1147,0.8853	-20784.02
0.1083,0.8917	-20743.41
0.1144,0.8856	-20792.14
0.0998,0.9002	-20769.11
0.1163,0.8837	-20778.22
0.1185,0.8815	-20792.85
0.1091,0.8909	-20764.57
0.1001,0.8999	-20817.36
0.1162,0.8838	-20755.89
0.1052,0.8948	-20766.47
0.1001,0.8999	-20775.63
0.1289,0.8711	-20803.99
0.1027,0.8973	-20747.05
0.1081,0.8919	-20783.46
0.0987,0.9013	-20773.73
0.1067,0.8933	-20779.25
0.1043,0.8957	-20772.93
0.1076,0.8924	-20732.71
0.1074,0.8926	-20785.59
0.1079,0.8921	-20783.47
0.1123,0.8877	-20765.07
0.1220,0.8780	-20807.58
0.1000,0.9000	-20744.89
0.0960,0.9040	-20702.70
0.1073,0.8927	-20779.24
0.1067,0.8933	-20743.13
0.1003,0.8997	-20753.66
0.0985,0.9015	-20784.86
0.1024,0.8976	-20788.30
0.1007,0.8993	-20758.01
0.0986,0.9014	-20740.55
0.0950,0.9050	-20806.34
0.0940,0.9060	-20757.05
0.1008,0.8992	-20766.76
0.1021,0.8979	-20749.22
0.1028,0.8972	-20777.38
0.1088,0.8912	-20770.85
0.1011,0.8989	-20729.57
0.1015,0.8985	-20755.77
0.0946,0.9054	-20770.41
0.1157,0.8843	-20778.09
0.0920,0.9080	-20714.19
0.1108,0.8892	-20768.97
0.1076,0.8924	-20791.93
0.1072,0.8928	-20775.00
0.1026,0.8974	-20807.76
0.1015,0.8985	-20768.85
0.0948,0.9052	-20772.62
0.1070,0.8930	-20741.05
0.1171,0.8829	-20790.55
0.1033,0.8967	-20721.14
0.1006,0.8994	-20762.40
0.1051,0.8949	-20742.91
0.0993,0.9007	-20727.29
0.1104,0.8896	-20785.61
0.1119,0.8881	-20764.99
0.1107,0.8893	-20804.38
0.1079,0.8921	-20751.78
0.1184,0.8816	-20792.83
0.1107,0.8893	-20793.96
0.1177,0.8823	-20814.84
0.1018,0.8982	-20747.04
0.0998,0.9002	-20766.90
0.0881,0.9119	-20745.33
0.1099,0.8901	-20812.79
0.1037,0.8963	-20783.75
0.1131,0.8869	-20752.89
0.1049,0.8951	-20764.33
0.0978,0.9022	-20731.73
0.1023,0.8977	-20768.77
0.1069,0.8931	-20775.00
0.0963,0.9037	-20738.54
0.1094,0.8906	-20781.38
0.1171,0.8829	-20806.70
0.0988,0.9012	-20756.02
0.1136,0.8864	-20783.83
0.1084,0.8916	-20760.29
0.1118,0.8882	-20775.34
0.1104,0.8896	-20816.91
0.0982,0.9018	-20751.67
0.1142,0.8858	-20790.08
0.0979,0.9021	-20756.15
0.1021,0.8979	-20720.96
0.1029,0.8971	-20796.87
0.1145,0.8855	-20800.34
0.1065,0.8935	-20817.54
0.1100,0.8900	-20810.69
0.1154,0.8846	-20739.34
0.0970,0.9030	-20751.84
0.1037,0.8963	-20794.53
0.1165,0.8835	-20804.61
0.1178,0.8822	-20826.93
0.1112,0.8888	-20783.58
0.1169,0.8831	-20802.64
0.1149,0.8851	-20810.58
0.1211,0.8789	-20829.18
0.1043,0.8957	-20762.18
0.0981,0.9019	-20742.81
0.1044,0.8956	-20751.43
0.1120,0.8880	-20796.07
0.1172,0.8828	-20841.04
0.1182,0.8818	-20816.90
0.1073,0.8927	-20736.86
0.1068,0.8932	-20766.51
0.1060,0.8940	-20792.07
0.0961,0.9039	-20774.43
0.1168,0.8832	-20818.81
0.0991,0.9009	-20771.43
0.1136,0.8864	-20779.73
0.1114,0.8886	-20808.51
0.1054,0.8946	-20775.03
0.0983,0.9017	-20751.66
0.1110,0.8890	-20789.81
0.1102,0.8898	-20798.13
0.1127,0.8873	-20804.36
0.1098,0.8902	-20810.70
0.1060,0.8940	-20779.27
0.0957,0.9043	-20772.31
0.1167,0.8833	-20784.40
0.1054,0.8946	-20819.93
0.1066,0.8934	-20764.37
0.0985,0.9015	-20742.78
0.1035,0.8965	-20788.10
0.1062,0.8938	-20781.39
0.1038,0.8962	-20747.10
0.1045,0.8955	-20777.22
0.0994,0.9006	-20749.33
0.0988,0.9012	-20769.29
0.1069,0.8931	-20764.38
0.1097,0.8903	-20777.21
0.1066,0.8934	-20770.75
0.1077,0.8923	-20747.53
0.1050,0.8950	-20766.47
0.1044,0.8956	-20775.07
0.0962,0.9038	-20760.97
0.1053,0.8947	-20734.37
0.0920,0.9080	-20771.40
0.1052,0.8948	-20796.44
0.1105,0.8895	-20764.75
0.1006,0.8994	-20755.83
0.1087,0.8913	-20785.57
0.1053,0.8947	-20766.47
0.0947,0.9053	-20736.53
0.0960,0.9040	-20711.67
0.1125,0.8875	-20785.77
0.1154,0.8846	-20796.35
0.1127,0.8873	-20789.91
0.1043,0.8957	-20729.93
0.1025,0.8975	-20740.54
0.1004,0.8996	-20742.69
0.1204,0.8796	-20831.09
0.1093,0.8907	-20762.50
0.1116,0.8884	-20791.91
0.1079,0.8921	-20819.38
0.1063,0.8937	-20794.16
0.0945,0.9055	-20774.97
0.1083,0.8917	-20787.68
0.1003,0.8997	-20777.79
0.0955,0.9045	-20770.12
0.1105,0.8895	-20743.90
0.1011,0.8989	-20764.53
0.1037,0.8963	-20736.31
0.1142,0.8858	-20777.78
0.1111,0.8889	-20748.23
0.1184,0.8816	-20742.63
0.0957,0.9043	-20758.84
0.0987,0.9013	-20744.97
0.1004,0.8996	-20771.19
0.1067,0.8933	-20766.50
0.1052,0.8948	-20796.43
0.1119,0.8881	-20783.64
0.0823,0.9177	-20721.94
0.0989,0.9011	-20738.33
0.1172,0.8828	-20784.50
0.1038,0.8962	-20736.31
0.1079,0.8921	-20768.68
0.1224,0.8776	-20793.88
0.1041,0.8959	-20729.89
0.0950,0.9050	-20729.71
0.1066,0.8934	-20779.25
0.0992,0.9008	-20747.14
0.1158,0.8842	-20792.35
0.1229,0.8771	-20835.31
0.1012,0.8988	-20786.35
0.0946,0.9054	-20772.66
0.1020,0.8980	-20744.87
0.1118,0.8882	-20754.63
0.1081,0.8919	-20772.91
0.1079,0.8921	-20770.79
0.1264,0.8736	-20837.83
0.0967,0.9033	-20738.49
0.1036,0.8964	-20779.46
0.1081,0.8919	-20764.47
0.1117,0.8883	-20777.39
0.1063,0.8937	-20775.00
0.1169,0.8831	-20828.92
0.1118,0.8882	-20769.13
0.1089,0.8911	-20808.70
0.1092,0.8908	-20775.08
0.1110,0.8890	-20768.99
0.0995,0.9005	-20793.37
0.1165,0.8835	-20796.51
0.1022,0.8978	-20766.60
0.1175,0.8825	-20796.67
0.0991,0.9009	-20755.98
0.1026,0.8974	-20749.22
0.1061,0.8939	-20747.30
0.1042,0.8958	-20772.94
0.1063,0.8937	-20802.67
0.1139,0.8861	-20787.99
0.0985,0.9015	-20753.84
0.1005,0.8995	-20733.92
0.1116,0.8884	-20798.13
0.1076,0.8924	-20758.09
0.1006,0.8994	-20779.91
0.1068,0.8932	-20762.25
0.1081,0.8919	-20770.80
0.0953,0.9047	-20756.69
0.1078,0.8922	-20753.88
0.1190,0.8810	-20770.95
0.1027,0.8973	-20790.41
0.1119,0.8881	-20773.28
0.1130,0.8870	-20769.34
0.0973,0.9027	-20745.12
0.1280,0.8720	-20822.83
0.1195,0.8805	-20817.04
0.0936,0.9064	-20763.95
0.1178,0.8822	-20782.63
0.1257,0.8743	-20781.46
0.1025,0.8975	-20781.76
0.1117,0.8883	-20748.37
0.1069,0.8931	-20768.63
0.0924,0.9076	-20773.54
0.1169,0.8831	-20804.66
0.1247,0.8753	-20818.05
0.1228,0.8772	-20825.47
0.1188,0.8812	-20782.89
0.1051,0.8949	-20770.75
0.1084,0.8916	-20775.04
0.1092,0.8908	-20739.41
0.1084,0.8916	-20764.49
0.1182,0.8818	-20818.90
0.1145,0.8855	-20812.62
0.1044,0.8956	-20777.23
0.1090,0.8910	-20760.36
0.0931,0.9069	-20761.86
0.0960,0.9040	-20740.82
0.1102,0.8898	-20745.91
0.1070,0.8930	-20762.27
0.1032,0.8968	-20766.53
0.1145,0.8855	-20820.80
0.1094,0.8906	-20817.03
0.0928,0.9072	-20736.88
0.1058,0.8942	-20785.68
0.1031,0.8969	-20777.35
0.1148,0.8852	-20810.58
0.1085,0.8915	-20756.09
0.1035,0.8965	-20781.62
0.1049,0.8951	-20766.47
0.1186,0.8814	-20792.87
0.0978,0.9022	-20818.39
0.0971,0.9029	-20778.59
0.0978,0.9022	-20720.62
0.0962,0.9038	-20687.03
0.1015,0.8985	-20738.32
0.1091,0.8909	-20783.47
0.1155,0.8845	-20773.96
0.0979,0.9021	-20753.94
0.1109,0.8891	-20802.29
0.0979,0.9021	-20758.37
0.1047,0.8953	-20736.43
0.0956,0.9044	-20727.40
0.1083,0.8917	-20804.55
0.1161,0.8839	-20782.24
0.1008,0.8992	-20766.75
0.0944,0.9056	-20741.09
0.0998,0.9002	-20740.50
0.1117,0.8883	-20779.48
0.1060,0.8940	-20734.49
0.1036,0.8964	-20762.19
0.1114,0.8886	-20789.82
0.1124,0.8876	-20800.22
0.0898,0.9102	-20721.50
0.1087,0.8913	-20772.94
0.1073,0.8927	-20783.48
0.1087,0.8913	-20791.88
0.1136,0.8864	-20808.49
0.1106,0.8894	-20754.36
0.0991,0.9009	-20758.19
0.1086,0.8914	-20785.57
0.1130,0.8870	-20763.15
0.1045,0.8955	-20777.22
0.1034,0.8966	-20747.08
0.1094,0.8906	-20798.16
0.1178,0.8822	-20758.47
0.1083,0.8917	-20823.52
0.1171,0.8829	-20810.74
0.1054,0.8946	-20770.75
0.0940,0.9060	-20727.58
0.1146,0.8854	-20796.26
0.1143,0.8857	-20745.05
0.0937,0.9063	-20732.16
0.0932,0.9068	-20727.69
0.1001,0.8999	-20764.65
0.0976,0.9024	-20760.66
0.1146,0.8854	-20806.48
0.1058,0.8942	-20785.68
0.1161,0.8839	-20839.07
0.0916,0.9084	-20748.66
0.0974,0.9026	-20769.59
0.1046,0.8954	-20760.03
0.1121,0.8879	-20779.52
0.1073,0.8927	-20755.94
0.1221,0.8779	-20789.83
0.0881,0.9119	-20731.31
0.1066,0.8934	-20823.89
0.1027,0.8973	-20790.40
0.1017,0.8983	-20777.55
0.1143,0.8857	-20790.09
0.1105,0.8895	-20783.53
0.0830,0.9170	-20685.54
0.1055,0.8945	-20766.47
0.1049,0.8951	-20745.03
0.1026,0.8974	-20744.88
0.1168,0.8832	-20798.57
0.1117,0.8883	-20802.28
0.0946,0.9054	-20754.59
0.0948,0.9052	-20727.48
0.1165,0.8835	-20790.43
0.1039,0.8961	-20764.34
0.0869,0.9131	-20752.90
0.1053,0.8947	-20772.89
0.0965,0.9035	-20783.25
0.1056,0.8944	-20755.79
0.1155,0.8845	-20759.72
0.1087,0.8913	-20785.57
0.0947,0.9053	-20754.59
0.1084,0.8916	-20794.00
0.1072,0.8928	-20802.55
0.1122,0.8878	-20806.42
0.1152,0.8848	-20777.98
0.1006,0.8994	-20771.17
0.0931,0.9069	-20727.72
0.1032,0.8968	-20770.86
0.1016,0.8984	-20777.55
0.1121,0.8879	-20808.49
0.1146,0.8854	-20814.66
0.1062,0.8938	-20766.48
0.1081,0.8919	-20753.93
0.0979,0.9021	-20776.14
0.0950,0.9050	-20756.77
0.1254,0.8746	-20812.40
0.0998,0.9002	-20777.90
0.1151,0.8849	-20808.55
0.1042,0.8958	-20749.27
0.1166,0.8834	-20751.96
0.1017,0.8983	-20740.51
0.1142,0.8858	-20804.42
0.1036,0.8964	-20768.66
0.1182,0.8818	-20804.85
0.0928,0.9072	-20736.90
0.1079,0.8921	-20760.23
0.1088,0.8912	-20760.33
0.0997,0.9003	-20766.92
0.1006,0.8994	-20744.87
0.1133,0.8867	-20794.09
0.0943,0.9057	-20727.53
0.1047,0.8953	-20742.86
0.1061,0.8939	-20757.96
0.1194,0.8806	-20827.03
0.1009,0.8991	-20753.62
0.1120,0.8880	-20804.35
0.1079,0.8921	-20770.79
0.1023,0.8977	-20773.11
0.1138,0.8862	-20816.71
0.0987,0.9013	-20762.68
0.1192,0.8808	-20797.00
0.1089,0.8911	-20785.57
0.1109,0.8891	-20754.41
0.0987,0.9013	-20740.55
0.1058,0.8942	-20751.53
0.1100,0.8900	-20789.78
0.1135,0.8865	-20783.83
0.1086,0.8914	-20815.04
0.1056,0.8944	-20745.11
0.1137,0.8863	-20835.19
0.1043,0.8957	-20768.63
0.1098,0.8902	-20802.33
0.1181,0.8819	-20788.73
0.1056,0.8944	-20794.25
0.1075,0.8925	-20798.29
0.1137,0.8863	-20790.01
0.1121,0.8879	-20767.10
0.0932,0.9068	-20702.67
0.1146,0.8854	-20788.08
0.1010,0.8990	-20757.98
0.0944,0.9056	-20775.02
0.1183,0.8817	-20792.81
0.1143,0.8857	-20794.18
0.0958,0.9042	-20707.18
0.1068,0.8932	-20789.86
0.1089,0.8911	-20787.67
0.0987,0.9013	-20795.83
0.1118,0.8882	-20810.57
0.1105,0.8895	-20758.49
0.1110,0.8890	-20739.87
0.0888,0.9112	-20728.73
0.0973,0.9027	-20749.57
0.1119,0.8881	-20781.57
0.1108,0.8892	-20785.63
0.1096,0.8904	-20758.34
0.1087,0.8913	-20781.36
0.0889,0.9111	-20726.38
0.1016,0.8984	-20755.76
0.1113,0.8887	-20818.91
0.1095,0.8905	-20787.68
0.1084,0.8916	-20804.54
0.1071,0.8929	-20808.92
0.1016,0.8984	-20779.73
0.0980,0.9020	-20769.45
0.1064,0.8936	-20762.23
0.1063,0.8937	-20781.39
0.1084,0.8916	-20770.82
0.1075,0.8925	-20766.54
0.1026,0.8974	-20747.05
0.1225,0.8775	-20799.81
0.1019,0.8981	-20727.45
0.1074,0.8926	-20772.89
0.1052,0.8948	-20777.18
0.1088,0.8912	-20800.29
0.1014,0.8986	-20801.58
0.1205,0.8795	-20789.37
0.1033,0.8967	-20805.43
0.1147,0.8853	-20759.50
0.1044,0.8956	-20764.33
0.1033,0.8967	-20762.20
0.0986,0.9014	-20749.41
0.1072,0.8928	-20764.40
0.1011,0.8989	-20827.89
0.0951,0.9049	-20772.51
0.0990,0.9010	-20758.20
0.1155,0.8845	-20800.43
0.1082,0.8918	-20766.59
0.1122,0.8878	-20787.80
0.0900,0.9100	-20726.07
0.1131,0.8869	-20765.24
0.0915,0.9085	-20705.07
0.1179,0.8821	-20800.76
0.0971,0.9029	-20751.83
0.1213,0.8787	-20831.18
0.1126,0.8874	-20765.13
0.1059,0.8941	-20768.61
0.0924,0.9076	-20716.42
0.1192,0.8808	-20772.99
0.1047,0.8953	-20770.76
0.1056,0.8944	-20787.83
0.1106,0.8894	-20798.13
0.1025,0.8975	-20790.45
0.1130,0.8870	-20785.82
0.1050,0.8950	-20734.32
0.0986,0.9014	-20751.63
0.1030,0.8970	-20790.35
0.1078,0.8922	-20800.37
0.1074,0.8926	-20779.24
0.1034,0.8966	-20768.68
0.1052,0.8948	-20775.03
0.1092,0.8908	-20770.89
0.1085,0.8915	-20766.61
0.1025,0.8975	-20762.23
0.0980,0.9020	-20773.89
0.1030,0.8970	-20755.72
0.0989,0.9011	-20791.35
0.1115,0.8885	-20783.60
0.0983,0.9017	-20742.80
0.1110,0.8890	-20777.32
0.1012,0.8988	-20749.23
0.1120,0.8880	-20781.58
0.0972,0.9028	-20733.99
0.1140,0.8860	-20765.45
0.1039,0.8961	-20755.72
0.1025,0.8975	-20764.41
0.0999,0.9001	-20773.48
0.1042,0.8958	-20744.97
0.1111,0.8889	-20771.09
0.1154,0.8846	-20806.54
0.1128,0.8872	-20765.18
0.1058,0.8942	-20753.67
0.1073,0.8927	-20777.12
0.1162,0.8838	-20808.63
0.1104,0.8896	-20773.10
0.1155,0.8845	-20814.69
0.1075,0.8925	-20791.94
0.1090,0.8910	-20749.86
0.1093,0.8907	-20772.99
0.1076,0.8924	-20739.04
0.1039,0.8961	-20770.80
0.1072,0.8928	-20772.88
0.1104,0.8896	-20808.57
0.1009,0.8991	-20755.80
0.1047,0.8953	-20740.72
0.1209,0.8791	-20795.43
0.1098,0.8902	-20773.03
0.1090,0.8910	-20777.17
0.1025,0.8975	-20762.24
0.0897,0.9103	-20719.20
0.1083,0.8917	-20796.11
0.1110,0.8890	-20812.69
0.1054,0.8946	-20790.00
0.1039,0.8961	-20764.34
0.0954,0.9046	-20761.16
0.0959,0.9041	-20785.72
0.1166,0.8834	-20792.46
0.1084,0.8916	-20777.14
0.1009,0.8991	-20742.68
0.1024,0.8976	-20757.90
0.1060,0.8940	-20792.06
0.1131,0.8869	-20794.07
0.1088,0.8912	-20791.88
0.1006,0.8994	-20773.36
0.1098,0.8902	-20764.66
0.1071,0.8929	-20736.83
0.1141,0.8859	-20771.62
0.1038,0.8962	-20729.85
0.1090,0.8910	-20802.38
0.1128,0.8872	-20777.55
0.1004,0.8996	-20731.72
0.0951,0.9049	-20756.73
0.1075,0.8925	-20758.07
0.1114,0.8886	-20785.67
0.0997,0.9003	-20780.12
0.1133,0.8867	-20800.26
0.1102,0.8898	-20806.49
0.1065,0.8935	-20770.75
0.1132,0.8868	-20802.31
0.1163,0.8837	-20780.24
0.0894,0.9106	-20733.21
0.1012,0.8988	-20773.26
0.1135,0.8865	-20829.05
0.1062,0.8938	-20751.57
0.0969,0.9031	-20771.97
0.1188,0.8812	-20794.93
0.0898,0.9102	-20784.05
0.1091,0.8909	-20735.18
0.1106,0.8894	-20773.11
0.1031,0.8969	-20773.02
0.1048,0.8952	-20805.07
0.1059,0.8941	-20796.35
0.0916,0.9084	-20755.52
0.0877,0.9123	-20747.87
0.1190,0.8810	-20802.96
0.1046,0.8954	-20749.30
0.0999,0.9001	-20762.49
0.1096,0.8904	-20789.77
0.1007,0.8993	-20751.44
0.0986,0.9014	-20762.69
0.0959,0.9041	-20796.95
0.1074,0.8926	-20785.59
0.0974,0.9026	-20776.28
0.1060,0.8940	-20770.74
0.0972,0.9028	-20796.37
0.1089,0.8911	-20785.57
0.0933,0.9067	-20729.96
0.0962,0.9038	-20729.60
0.0947,0.9053	-20808.77
0.1191,0.8809	-20831.00
0.1171,0.8829	-20760.23
0.1016,0.8984	-20801.53
0.0936,0.9064	-20734.46
0.1090,0.8910	-20745.65
0.1119,0.8881	-20760.86
0.1125,0.8875	-20773.37
0.1118,0.8882	-20773.26
0.1069,0.8931	-20738.92
0.1010,0.8990	-20727.38
0.1117,0.8883	-20754.59
0.1020,0.8980	-20762.27
0.1287,0.8713	-20823.04
0.0992,0.9008	-20744.94
0.1086,0.8914	-20762.41
0.1152,0.8848	-20810.60
0.1123,0.8877	-20804.36
0.1027,0.8973	-20736.21
0.1060,0.8940	-20764.35
0.0974,0.9026	-20782.97
0.0985,0.9015	-20811.39
0.1066,0.8934	-20755.87
0.1099,0.8901	-20750.02
0.1056,0.8944	-20755.79
0.1143,0.8857	-20804.42
0.1073,0.8927	-20764.41
0.1046,0.8954	-20755.74
0.0972,0.9028	-20749.58
0.1020,0.8980	-20784.01
0.1027,0.8973	-20729.71
0.1089,0.8911	-20808.69
0.1141,0.8859	-20777.76
0.0983,0.9017	-20740.58
0.0997,0.9003	-20744.91
0.1086,0.8914	-20785.57
0.1230,0.8770	-20794.09
0.0961,0.9039	-20758.75
0.1150,0.8850	-20751.40
0.1010,0.8990	-20736.12
0.1052,0.8948	-20753.63
0.1048,0.8952	-20790.06
0.1228,0.8772	-20819.58
0.0965,0.9035	-20751.94
0.1130,0.8870	-20808.49
0.1228,0.8772	-20803.85
0.1199,0.8801	-20801.15
0.1185,0.8815	-20754.74
0.1164,0.8836	-20782.30
0.1020,0.8980	-20751.39
0.1083,0.8917	-20741.30
0.1017,0.8983	-20799.32
0.1161,0.8839	-20812.69
0.0988,0.9012	-20769.29
0.1156,0.8844	-20767.88
0.1022,0.8978	-20744.87
0.1055,0.8945	-20755.78
0.1187,0.8813	-20776.86
0.1014,0.8986	-20744.86
0.0985,0.9015	-20733.92
0.1115,0.8885	-20839.63
0.1088,0.8912	-20781.36
0.1113,0.8887	-20806.44
0.1138,0.8862	-20818.76
0.0894,0.9106	-20747.12
0.1070,0.8930	-20781.36
0.1106,0.8894	-20796.04
0.1019,0.8981	-20794.91
0.1085,0.8915	-20766.61
0.1042,0.8958	-20760.03
0.0902,0.9098	-20742.20
0.1205,0.8795	-20799.29
0.1074,0.8926	-20753.83
0.1071,0.8929	-20758.04
0.1058,0.8942	-20747.27
0.0984,0.9016	-20758.30
0.0883,0.9117	-20740.58
0.1013,0.8987	-20775.43
0.1026,0.8974	-20740.55
0.1052,0.8948	-20730.08
0.1074,0.8926	-20813.13
0.0987,0.9013	-20778.16
0.1046,0.8954	-20760.03
0.0999,0.9001	-20808.67
0.1037,0.8963	-20783.75
0.0946,0.9054	-20725.25
0.1027,0.8973	-20723.21
0.1113,0.8887	-20812.67
0.1022,0.8978	-20792.67
0.1136,0.8864	-20779.74
0.0927,0.9073	-20714.10
0.0961,0.9039	-20783.39
0.1059,0.8941	-20796.34
0.1036,0.8964	-20766.51
0.1027,0.8973	-20762.23
0.1040,0.8960	-20762.18
0.1003,0.8997	-20760.24
0.1196,0.8804	-20817.06
0.1050,0.8950	-20802.90
0.1113,0.8887	-20781.51
0.1055,0.8945	-20804.95
0.1149,0.8851	-20784.04
0.1119,0.8881	-20762.93
0.1068,0.8932	-20798.36
0.1154,0.8846	-20794.32
0.1176,0.8824	-20808.78
0.1095,0.8905	-20798.15
0.1091,0.8909	-20806.57
0.0986,0.9014	-20744.98
0.1096,0.8904	-20758.35
0.1024,0.8976	-20755.73
0.1076,0.8924	-20777.12
0.1007,0.8993	-20747.06
0.1059,0.8941	-20762.21
0.1022,0.8978	-20777.46
0.1017,0.8983	-20747.04
0.1046,0.8954	-20762.18
0.1123,0.8877	-20777.48
0.1012,0.8988	-20757.97
0.1089,0.8911	-20766.65
0.1036,0.8964	-20781.62
0.1082,0.8918	-20747.61
0.1000,0.9000	-20766.87
0.1235,0.8765	-20823.64
0.1015,0.8985	-20751.40
0.1011,0.8989	-20786.39
0.1076,0.8924	-20751.74
0.0969,0.9031	-20758.57
0.1095,0.8905	-20781.39
0.1028,0.8972	-20779.55
0.0991,0.9009	-20760.39
0.1024,0.8976	-20757.90
0.1046,0.8954	-20753.59
0.1219,0.8781	-20811.50
0.1047,0.8953	-20766.47
0.0957,0.9043	-20767.82
0.1017,0.8983	-20781.89
0.0966,0.9034	-20727.33
0.1091,0.8909	-20785.57
0.1023,0.8977	-20738.36
0.1004,0.8996	-20760.23
0.1089,0.8911	-20749.84
0.1128,0.8872	-20814.67
0.1079,0.8921	-20787.69
0.1114,0.8886	-20769.06
0.1047,0.8953	-20796.52
0.1102,0.8898	-20827.37
0.1095,0.8905	-20756.25
0.1087,0.8913	-20768.74
0.1076,0.8924	-20775.01
0.1153,0.8847	-20808.57
0.1126,0.8874	-20818.81
0.1025,0.8975	-20792.62
0.1075,0.8925	-20766.54
0.0989,0.9011	-20767.05
0.1161,0.8839	-20796.44
0.1111,0.8889	-20779.41
0.0974,0.9026	-20733.98
0.1116,0.8884	-20737.97
0.1055,0.8945	-20800.67
0.1114,0.8886	-20777.37
0.1080,0.8920	-20796.13
0.1001,0.8999	-20751.48
0.0904,0.9096	-20751.35
0.1104,0.8896	-20777.27
0.1099,0.8901	-20768.86
0.1254,0.8746	-20802.70
0.1160,0.8840	-20820.80
0.1121,0.8879	-20814.70
0.0970,0.9030	-20765.24
0.1120,0.8880	-20798.14
0.0963,0.9037	-20776.62
0.1143,0.8857	-20796.23
0.1264,0.8736	-20793.35
0.1095,0.8905	-20798.15
0.0999,0.9001	-20758.08
0.1065,0.8935	-20762.24
0.1055,0.8945	-20760.06
0.1050,0.8950	-20783.61
0.1310,0.8690	-20789.77
0.1225,0.8775	-20831.33
0.1039,0.8961	-20798.82
0.0985,0.9015	-20751.64
0.1013,0.8987	-20733.95
0.1020,0.8980	-20764.45
0.1202,0.8798	-20787.30
0.1271,0.8729	-20816.77
0.1079,0.8921	-20762.34
0.0974,0.9026	-20782.94
0.1074,0.8926	-20768.65
0.1064,0.8936	-20755.85
0.1142,0.8858	-20808.51
0.1172,0.8828	-20758.27
0.1116,0.8884	-20812.66
0.1084,0.8916	-20804.54
0.1074,0.8926	-20770.77
0.1083,0.8917	-20739.19
0.1192,0.8808	-20750.99
0.0970,0.9030	-20751.85
0.1077,0.8923	-20789.81
0.1025,0.8975	-20783.93
0.1115,0.8885	-20796.06
0.1196,0.8804	-20833.03
0.1087,0.8913	-20775.05
0.0958,0.9042	-20765.55
0.1037,0.8963	-20768.66
0.0977,0.9023	-20753.97
0.1104,0.8896	-20816.91
0.1024,0.8976	-20751.39
0.1143,0.8857	-20798.28
0.1043,0.8957	-20775.09
0.1242,0.8758	-20819.88
0.1043,0.8957	-20809.48
0.1021,0.8979	-20807.92
0.1041,0.8959	-20760.03
0.1050,0.8950	-20768.61
0.1020,0.8980	-20775.33
0.1124,0.8876	-20765.09
0.1230,0.8770	-20805.87
0.1098,0.8902	-20770.94
0.1037,0.8963	-20747.09
0.0989,0.9011	-20733.91
0.1006,0.8994	-20762.39
0.1112,0.8888	-20796.05
0.1063,0.8937	-20794.16
0.0972,0.9028	-20794.16
0.1075,0.8925	-20743.26
0.1024,0.8976	-20734.03
0.1038,0.8962	-20788.05
0.1012,0.8988	-20747.05
0.1008,0.8992	-20799.57
0.1099,0.8901	-20783.50
0.1139,0.8861	-20808.50
0.1083,0.8917	-20775.03
0.1033,0.8967	-20738.43
0.1102,0.8898	-20775.16
0.0999,0.9001	-20788.86
0.1180,0.8820	-20796.77
0.1002,0.8998	-20760.25
0.1113,0.8887	-20760.73
0.1080,0.8920	-20766.57
0.1004,0.8996	-20764.62
0.1061,0.8939	-20743.03
0.1083,0.8917	-20753.95
0.1034,0.8966	-20764.36
0.1201,0.8799	-20803.19
0.1018,0.8982	-20779.71
0.1126,0.8874	-20775.46
0.1139,0.8861	-20794.14
0.1161,0.8839	-20792.38
0.1083,0.8917	-20806.66
0.1125,0.8875	-20769.25
0.1136,0.8864	-20785.90
0.1038,0.8962	-20796.68
0.1057,0.8943	-20772.88
0.0985,0.9015	-20767.14
0.1057,0.8943	-20745.11
0.1056,0.8944	-20747.25
0.1192,0.8808	-20807.00
0.1180,0.8820	-20776.65
0.1117,0.8883	-20800.21
0.0989,0.9011	-20797.98
0.1162,0.8838	-20812.69
0.1092,0.8908	-20731.01
0.1062,0.8938	-20781.39
0.1183,0.8817	-20776.74
0.1002,0.8998	-20755.86
0.0937,0.9063	-20757.11
0.1278,0.8722	-20799.74
0.1093,0.8907	-20798.16
0.1131,0.8869	-20752.89
0.1123,0.8877	-20754.73
0.0999,0.9001	-20788.86
0.1147,0.8853	-20800.36
0.1227,0.8773	-20827.42
0.1129,0.8871	-20816.73
0.1014,0.8986	-20749.23
0.1091,0.8909	-20775.07
0.1037,0.8963	-20772.97
0.1071,0.8929	-20806.81
0.1243,0.8757	-20776.93
0.1153,0.8847	-20798.38
0.1143,0.8857	-20765.51
0.1125,0.8875	-20831.20
0.0899,0.9101	-20679.80
0.1073,0.8927	-20745.35
0.1140,0.8860	-20802.35
